; C:\Data\Froehlich\Praktikum\2016-02-09_ignatiev\probe3.raw(Diffrac Plus V1.01 file) converted by XCH V1.0
_FILEVERSION=2
_SAMPLE='Probe3'
_SITE='II. Physikalisches Institut'
_ATTACHMENTS_CODE=0
_GONIOMETER_RADIUS=200.500000
_FIXED_DIVSLIT=2.000000
_FIXED_SAMPLESLIT=1.000000
_FIXED_DETSLIT=0.200000
_MONOCHROMATOR=0
; None
_THIN_FILM='N'
_BETA_FILTER='Y'
_FIXED_ANTISLIT=2.000000
_ANALYZER_CODE=0
; None
_DATEMEASURED='09-Feb-2016 23:43:25'
_WL_UNIT='A'
_WL1=1.540590
_WL2=1.544430
_WL3=1.392230
_WLRATIO=0.520000
_ANODE='Cu'
; (Data for Range number 1)
_DRIVE='COUPLED'
_STEPTIME=2.000000
_STEPSIZE=0.022000
_STEPMODE='C'
_START=12.000000
_THETA=6.000000
_2THETA=12.000000
_KHI=0.000000
_PHI=0.000000
_X=0.000000
_Y=0.000000
_Z=0.000000
_DIVERGENCE=0.000000
_ANTISCATTER=0.000000
_DETECTOR=1
; S.C.
_HV=1000.000000
_GAIN=80.000000
_LLD=0.550000
_ULD=1.310000
_DETECTORSLIT='unkn'
_AUX1=0.000000
_AUX2=0.000000
_AUX3=0.000000
_TIMESTARTED=13.000000
_ROTATION_SPEED=120.000000
_TEMP_RATE=-1.000000
_TEMP_DELAY=-1.000000
_KV=40
_MA=40
_RANGE_WL=1.540590
_3DPLANE=0
_2THETACOUNTS
  12.0000       216
  12.0220       243
  12.0440       243
  12.0660       248
  12.0880       235
  12.1100       245
  12.1320       266
  12.1540       271
  12.1760       246
  12.1980       239
  12.2200       254
  12.2420       257
  12.2640       276
  12.2860       254
  12.3080       235
  12.3300       244
  12.3520       270
  12.3740       249
  12.3960       218
  12.4180       247
  12.4400       245
  12.4620       235
  12.4840       222
  12.5060       212
  12.5280       244
  12.5500       237
  12.5720       233
  12.5940       237
  12.6160       283
  12.6380       244
  12.6600       212
  12.6820       243
  12.7040       254
  12.7260       249
  12.7480       244
  12.7700       249
  12.7920       231
  12.8140       246
  12.8360       255
  12.8580       254
  12.8800       254
  12.9020       215
  12.9240       240
  12.9460       258
  12.9680       257
  12.9900       252
  13.0120       255
  13.0340       245
  13.0560       205
  13.0780       241
  13.1000       225
  13.1220       254
  13.1440       244
  13.1660       242
  13.1880       255
  13.2100       232
  13.2320       258
  13.2540       235
  13.2760       246
  13.2980       248
  13.3200       247
  13.3420       245
  13.3640       255
  13.3860       243
  13.4080       251
  13.4300       237
  13.4520       261
  13.4740       241
  13.4960       248
  13.5180       276
  13.5400       229
  13.5620       232
  13.5840       271
  13.6060       247
  13.6280       267
  13.6500       256
  13.6720       250
  13.6940       270
  13.7160       263
  13.7380       234
  13.7600       244
  13.7820       234
  13.8040       265
  13.8260       254
  13.8480       255
  13.8700       243
  13.8920       241
  13.9140       268
  13.9360       266
  13.9580       286
  13.9800       276
  14.0020       255
  14.0240       244
  14.0460       258
  14.0680       236
  14.0900       251
  14.1120       228
  14.1340       237
  14.1560       264
  14.1780       264
  14.2000       261
  14.2220       229
  14.2440       239
  14.2660       250
  14.2880       255
  14.3100       232
  14.3320       252
  14.3540       251
  14.3760       281
  14.3980       228
  14.4200       259
  14.4420       244
  14.4640       264
  14.4860       249
  14.5080       250
  14.5300       225
  14.5520       269
  14.5740       254
  14.5960       264
  14.6180       281
  14.6400       274
  14.6620       248
  14.6840       259
  14.7060       254
  14.7280       267
  14.7500       237
  14.7720       281
  14.7940       246
  14.8160       265
  14.8380       261
  14.8600       232
  14.8820       282
  14.9040       255
  14.9260       257
  14.9480       272
  14.9700       219
  14.9920       237
  15.0140       269
  15.0360       235
  15.0580       241
  15.0800       265
  15.1020       273
  15.1240       267
  15.1460       303
  15.1680       254
  15.1900       233
  15.2120       260
  15.2340       235
  15.2560       239
  15.2780       253
  15.3000       235
  15.3220       250
  15.3440       253
  15.3660       245
  15.3880       257
  15.4100       286
  15.4320       240
  15.4540       246
  15.4760       255
  15.4980       251
  15.5200       248
  15.5420       250
  15.5640       207
  15.5860       276
  15.6080       251
  15.6300       244
  15.6520       264
  15.6740       264
  15.6960       246
  15.7180       249
  15.7400       274
  15.7620       224
  15.7840       259
  15.8060       265
  15.8280       259
  15.8500       250
  15.8720       247
  15.8940       267
  15.9160       228
  15.9380       254
  15.9600       249
  15.9820       275
  16.0040       280
  16.0260       258
  16.0480       263
  16.0700       239
  16.0920       248
  16.1140       229
  16.1360       258
  16.1580       274
  16.1800       272
  16.2020       289
  16.2240       258
  16.2460       267
  16.2680       246
  16.2900       271
  16.3120       298
  16.3340       270
  16.3560       247
  16.3780       292
  16.4000       268
  16.4220       289
  16.4440       255
  16.4660       291
  16.4880       264
  16.5100       218
  16.5320       272
  16.5540       294
  16.5760       278
  16.5980       294
  16.6200       282
  16.6420       255
  16.6640       258
  16.6860       296
  16.7080       269
  16.7300       266
  16.7520       283
  16.7740       240
  16.7960       261
  16.8180       276
  16.8400       280
  16.8620       275
  16.8840       259
  16.9060       267
  16.9280       266
  16.9500       295
  16.9720       290
  16.9940       294
  17.0160       266
  17.0380       260
  17.0600       281
  17.0820       241
  17.1040       274
  17.1260       294
  17.1480       266
  17.1700       230
  17.1920       261
  17.2140       270
  17.2360       268
  17.2580       267
  17.2800       277
  17.3020       276
  17.3240       289
  17.3460       290
  17.3680       287
  17.3900       280
  17.4120       271
  17.4340       283
  17.4560       265
  17.4780       290
  17.5000       297
  17.5220       258
  17.5440       268
  17.5660       292
  17.5880       282
  17.6100       294
  17.6320       298
  17.6540       297
  17.6760       309
  17.6980       297
  17.7200       285
  17.7420       269
  17.7640       268
  17.7860       271
  17.8080       311
  17.8300       297
  17.8520       287
  17.8740       286
  17.8960       298
  17.9180       276
  17.9400       272
  17.9620       306
  17.9840       274
  18.0060       275
  18.0280       291
  18.0500       262
  18.0720       279
  18.0940       321
  18.1160       281
  18.1380       299
  18.1600       267
  18.1820       296
  18.2040       303
  18.2260       282
  18.2480       299
  18.2700       285
  18.2920       295
  18.3140       282
  18.3360       321
  18.3580       277
  18.3800       304
  18.4020       290
  18.4240       277
  18.4460       285
  18.4680       297
  18.4900       293
  18.5120       265
  18.5340       278
  18.5560       298
  18.5780       286
  18.6000       325
  18.6220       288
  18.6440       309
  18.6660       272
  18.6880       271
  18.7100       265
  18.7320       298
  18.7540       292
  18.7760       316
  18.7980       283
  18.8200       306
  18.8420       280
  18.8640       295
  18.8860       323
  18.9080       308
  18.9300       304
  18.9520       274
  18.9740       266
  18.9960       276
  19.0180       287
  19.0400       285
  19.0620       303
  19.0840       308
  19.1060       308
  19.1280       299
  19.1500       291
  19.1720       308
  19.1940       272
  19.2160       297
  19.2380       302
  19.2600       293
  19.2820       322
  19.3040       314
  19.3260       315
  19.3480       305
  19.3700       313
  19.3920       301
  19.4140       298
  19.4360       298
  19.4580       315
  19.4800       355
  19.5020       331
  19.5240       297
  19.5460       316
  19.5680       306
  19.5900       336
  19.6120       286
  19.6340       299
  19.6560       320
  19.6780       316
  19.7000       336
  19.7220       297
  19.7440       325
  19.7660       335
  19.7880       312
  19.8100       327
  19.8320       336
  19.8540       312
  19.8760       310
  19.8980       360
  19.9200       329
  19.9420       307
  19.9640       320
  19.9860       309
  20.0080       348
  20.0300       316
  20.0520       308
  20.0740       330
  20.0960       359
  20.1180       333
  20.1400       366
  20.1620       351
  20.1840       338
  20.2060       326
  20.2280       330
  20.2500       340
  20.2720       348
  20.2940       348
  20.3160       303
  20.3380       335
  20.3600       346
  20.3820       318
  20.4040       348
  20.4260       327
  20.4480       338
  20.4700       360
  20.4920       347
  20.5140       312
  20.5360       335
  20.5580       326
  20.5800       373
  20.6020       339
  20.6240       356
  20.6460       320
  20.6680       318
  20.6900       302
  20.7120       326
  20.7340       325
  20.7560       355
  20.7780       315
  20.8000       311
  20.8220       331
  20.8440       370
  20.8660       349
  20.8880       361
  20.9100       321
  20.9320       348
  20.9540       341
  20.9760       377
  20.9980       348
  21.0200       359
  21.0420       341
  21.0640       354
  21.0860       328
  21.1080       379
  21.1300       390
  21.1520       361
  21.1740       366
  21.1960       341
  21.2180       381
  21.2400       351
  21.2620       329
  21.2840       364
  21.3060       343
  21.3280       347
  21.3500       384
  21.3720       307
  21.3940       366
  21.4160       350
  21.4380       331
  21.4600       331
  21.4820       370
  21.5040       372
  21.5260       373
  21.5480       356
  21.5700       344
  21.5920       355
  21.6140       336
  21.6360       380
  21.6580       361
  21.6800       352
  21.7020       346
  21.7240       386
  21.7460       341
  21.7680       391
  21.7900       353
  21.8120       363
  21.8340       357
  21.8560       361
  21.8780       327
  21.9000       365
  21.9220       374
  21.9440       347
  21.9660       357
  21.9880       350
  22.0100       376
  22.0320       368
  22.0540       389
  22.0760       346
  22.0980       383
  22.1200       335
  22.1420       375
  22.1640       379
  22.1860       429
  22.2080       359
  22.2300       362
  22.2520       378
  22.2740       334
  22.2960       360
  22.3180       374
  22.3400       382
  22.3620       365
  22.3840       342
  22.4060       334
  22.4280       344
  22.4500       384
  22.4720       340
  22.4940       339
  22.5160       368
  22.5380       358
  22.5600       371
  22.5820       366
  22.6040       368
  22.6260       384
  22.6480       324
  22.6700       357
  22.6920       373
  22.7140       354
  22.7360       396
  22.7580       395
  22.7800       359
  22.8020       352
  22.8240       379
  22.8460       362
  22.8680       387
  22.8900       352
  22.9120       402
  22.9340       349
  22.9560       389
  22.9780       357
  23.0000       386
  23.0220       344
  23.0440       355
  23.0660       385
  23.0880       328
  23.1100       392
  23.1320       359
  23.1540       369
  23.1760       390
  23.1980       350
  23.2200       362
  23.2420       387
  23.2640       390
  23.2860       378
  23.3080       369
  23.3300       369
  23.3520       386
  23.3740       375
  23.3960       359
  23.4180       383
  23.4400       411
  23.4620       373
  23.4840       440
  23.5060       383
  23.5280       405
  23.5500       413
  23.5720       434
  23.5940       412
  23.6160       379
  23.6380       438
  23.6600       435
  23.6820       436
  23.7040       415
  23.7260       404
  23.7480       379
  23.7700       406
  23.7920       430
  23.8140       413
  23.8360       427
  23.8580       461
  23.8800       450
  23.9020       425
  23.9240       420
  23.9460       407
  23.9680       393
  23.9900       424
  24.0120       411
  24.0340       436
  24.0560       424
  24.0780       403
  24.1000       409
  24.1220       448
  24.1440       423
  24.1660       402
  24.1880       406
  24.2100       388
  24.2320       409
  24.2540       403
  24.2760       379
  24.2980       425
  24.3200       351
  24.3420       396
  24.3640       366
  24.3860       369
  24.4080       400
  24.4300       419
  24.4520       392
  24.4740       406
  24.4960       379
  24.5180       372
  24.5400       361
  24.5620       383
  24.5840       386
  24.6060       359
  24.6280       373
  24.6500       379
  24.6720       353
  24.6940       418
  24.7160       355
  24.7380       373
  24.7600       374
  24.7820       382
  24.8040       382
  24.8260       375
  24.8480       382
  24.8700       358
  24.8920       374
  24.9140       379
  24.9360       413
  24.9580       388
  24.9800       411
  25.0020       372
  25.0240       402
  25.0460       339
  25.0680       357
  25.0900       356
  25.1120       381
  25.1340       393
  25.1560       359
  25.1780       384
  25.2000       345
  25.2220       374
  25.2440       387
  25.2660       401
  25.2880       376
  25.3100       360
  25.3320       333
  25.3540       355
  25.3760       381
  25.3980       354
  25.4200       357
  25.4420       336
  25.4640       345
  25.4860       394
  25.5080       359
  25.5300       348
  25.5520       379
  25.5740       368
  25.5960       340
  25.6180       340
  25.6400       368
  25.6620       367
  25.6840       331
  25.7060       367
  25.7280       331
  25.7500       317
  25.7720       356
  25.7940       305
  25.8160       313
  25.8380       329
  25.8600       364
  25.8820       379
  25.9040       356
  25.9260       403
  25.9480       366
  25.9700       396
  25.9920       378
  26.0140       353
  26.0360       361
  26.0580       359
  26.0800       330
  26.1020       355
  26.1240       351
  26.1460       357
  26.1680       352
  26.1900       343
  26.2120       366
  26.2340       336
  26.2560       352
  26.2780       336
  26.3000       344
  26.3220       363
  26.3440       345
  26.3660       363
  26.3880       367
  26.4100       356
  26.4320       392
  26.4540       369
  26.4760       339
  26.4980       329
  26.5200       353
  26.5420       362
  26.5640       331
  26.5860       380
  26.6080       327
  26.6300       348
  26.6520       335
  26.6740       337
  26.6960       377
  26.7180       343
  26.7400       339
  26.7620       368
  26.7840       351
  26.8060       360
  26.8280       366
  26.8500       360
  26.8720       366
  26.8940       363
  26.9160       381
  26.9380       345
  26.9600       370
  26.9820       324
  27.0040       364
  27.0260       339
  27.0480       321
  27.0700       354
  27.0920       343
  27.1140       344
  27.1360       337
  27.1580       318
  27.1800       341
  27.2020       360
  27.2240       348
  27.2460       346
  27.2680       312
  27.2900       353
  27.3120       319
  27.3340       328
  27.3560       342
  27.3780       383
  27.4000       386
  27.4220       361
  27.4440       342
  27.4660       309
  27.4880       313
  27.5100       344
  27.5320       345
  27.5540       336
  27.5760       340
  27.5980       336
  27.6200       381
  27.6420       349
  27.6640       320
  27.6860       341
  27.7080       330
  27.7300       337
  27.7520       336
  27.7740       315
  27.7960       344
  27.8180       329
  27.8400       339
  27.8620       322
  27.8840       310
  27.9060       360
  27.9280       331
  27.9500       312
  27.9720       338
  27.9940       336
  28.0160       339
  28.0380       353
  28.0600       350
  28.0820       333
  28.1040       330
  28.1260       316
  28.1480       347
  28.1700       327
  28.1920       365
  28.2140       361
  28.2360       332
  28.2580       327
  28.2800       335
  28.3020       330
  28.3240       316
  28.3460       344
  28.3680       346
  28.3900       341
  28.4120       384
  28.4340       345
  28.4560       314
  28.4780       340
  28.5000       334
  28.5220       322
  28.5440       319
  28.5660       317
  28.5880       339
  28.6100       347
  28.6320       340
  28.6540       317
  28.6760       323
  28.6980       303
  28.7200       343
  28.7420       341
  28.7640       316
  28.7860       364
  28.8080       312
  28.8300       303
  28.8520       309
  28.8740       316
  28.8960       350
  28.9180       333
  28.9400       360
  28.9620       326
  28.9840       316
  29.0060       323
  29.0280       314
  29.0500       340
  29.0720       352
  29.0940       338
  29.1160       299
  29.1380       320
  29.1600       303
  29.1820       346
  29.2040       293
  29.2260       332
  29.2480       327
  29.2700       354
  29.2920       317
  29.3140       332
  29.3360       341
  29.3580       350
  29.3800       335
  29.4020       334
  29.4240       289
  29.4460       332
  29.4680       346
  29.4900       333
  29.5120       334
  29.5340       320
  29.5560       330
  29.5780       291
  29.6000       317
  29.6220       316
  29.6440       293
  29.6660       323
  29.6880       300
  29.7100       334
  29.7320       316
  29.7540       299
  29.7760       327
  29.7980       298
  29.8200       320
  29.8420       324
  29.8640       357
  29.8860       327
  29.9080       329
  29.9300       332
  29.9520       327
  29.9740       331
  29.9960       314
  30.0180       338
  30.0400       334
  30.0620       329
  30.0840       317
  30.1060       347
  30.1280       335
  30.1500       303
  30.1720       348
  30.1940       316
  30.2160       326
  30.2380       305
  30.2600       312
  30.2820       290
  30.3040       294
  30.3260       339
  30.3480       308
  30.3700       297
  30.3920       342
  30.4140       315
  30.4360       327
  30.4580       323
  30.4800       279
  30.5020       311
  30.5240       285
  30.5460       308
  30.5680       284
  30.5900       283
  30.6120       312
  30.6340       312
  30.6560       310
  30.6780       313
  30.7000       310
  30.7220       373
  30.7440       321
  30.7660       305
  30.7880       329
  30.8100       332
  30.8320       309
  30.8540       323
  30.8760       310
  30.8980       336
  30.9200       346
  30.9420       337
  30.9640       300
  30.9860       287
  31.0080       294
  31.0300       331
  31.0520       299
  31.0740       335
  31.0960       341
  31.1180       306
  31.1400       308
  31.1620       305
  31.1840       299
  31.2060       307
  31.2280       323
  31.2500       297
  31.2720       349
  31.2940       341
  31.3160       309
  31.3380       310
  31.3600       275
  31.3820       296
  31.4040       324
  31.4260       297
  31.4480       307
  31.4700       299
  31.4920       324
  31.5140       316
  31.5360       307
  31.5580       303
  31.5800       310
  31.6020       324
  31.6240       295
  31.6460       317
  31.6680       322
  31.6900       305
  31.7120       303
  31.7340       301
