; C:\Data\Froehlich\Praktikum\2016-02-09_ignatiev\probe2.raw(Diffrac Plus V1.01 file) converted by XCH V1.0
_FILEVERSION=2
_SAMPLE='Probe2'
_SITE='II. Physikalisches Institut'
_ATTACHMENTS_CODE=0
_GONIOMETER_RADIUS=200.500000
_FIXED_DIVSLIT=2.000000
_FIXED_SAMPLESLIT=1.000000
_FIXED_DETSLIT=0.200000
_MONOCHROMATOR=0
; None
_THIN_FILM='N'
_BETA_FILTER='Y'
_FIXED_ANTISLIT=2.000000
_ANALYZER_CODE=0
; None
_DATEMEASURED='09-Feb-2016 20:56:04'
_WL_UNIT='A'
_WL1=1.540590
_WL2=1.544430
_WL3=1.392230
_WLRATIO=0.520000
_ANODE='Cu'
; (Data for Range number 1)
_DRIVE='COUPLED'
_STEPTIME=2.000000
_STEPSIZE=0.022000
_STEPMODE='C'
_START=12.000000
_THETA=6.000000
_2THETA=12.000000
_KHI=0.000000
_PHI=0.000000
_X=0.000000
_Y=0.000000
_Z=0.000000
_DIVERGENCE=0.000000
_ANTISCATTER=0.000000
_DETECTOR=1
; S.C.
_HV=1000.000000
_GAIN=80.000000
_LLD=0.550000
_ULD=1.310000
_DETECTORSLIT='unkn'
_AUX1=0.000000
_AUX2=0.000000
_AUX3=0.000000
_TIMESTARTED=13.000000
_ROTATION_SPEED=120.000000
_TEMP_RATE=-1.000000
_TEMP_DELAY=-1.000000
_KV=40
_MA=40
_RANGE_WL=1.540590
_3DPLANE=0
_2THETACOUNTS
  12.0000       233
  12.0220       219
  12.0440       232
  12.0660       219
  12.0880       239
  12.1100       248
  12.1320       227
  12.1540       234
  12.1760       223
  12.1980       232
  12.2200       211
  12.2420       220
  12.2640       234
  12.2860       226
  12.3080       206
  12.3300       277
  12.3520       222
  12.3740       242
  12.3960       223
  12.4180       219
  12.4400       214
  12.4620       259
  12.4840       249
  12.5060       232
  12.5280       225
  12.5500       245
  12.5720       246
  12.5940       236
  12.6160       234
  12.6380       215
  12.6600       224
  12.6820       262
  12.7040       240
  12.7260       217
  12.7480       211
  12.7700       218
  12.7920       214
  12.8140       247
  12.8360       209
  12.8580       246
  12.8800       216
  12.9020       254
  12.9240       239
  12.9460       227
  12.9680       206
  12.9900       215
  13.0120       266
  13.0340       219
  13.0560       215
  13.0780       226
  13.1000       209
  13.1220       232
  13.1440       213
  13.1660       262
  13.1880       234
  13.2100       234
  13.2320       237
  13.2540       224
  13.2760       241
  13.2980       246
  13.3200       211
  13.3420       249
  13.3640       221
  13.3860       241
  13.4080       254
  13.4300       221
  13.4520       229
  13.4740       241
  13.4960       226
  13.5180       239
  13.5400       225
  13.5620       244
  13.5840       233
  13.6060       221
  13.6280       217
  13.6500       241
  13.6720       243
  13.6940       247
  13.7160       235
  13.7380       250
  13.7600       249
  13.7820       251
  13.8040       221
  13.8260       230
  13.8480       255
  13.8700       254
  13.8920       240
  13.9140       246
  13.9360       230
  13.9580       216
  13.9800       213
  14.0020       254
  14.0240       264
  14.0460       267
  14.0680       266
  14.0900       262
  14.1120       216
  14.1340       243
  14.1560       229
  14.1780       244
  14.2000       222
  14.2220       244
  14.2440       262
  14.2660       251
  14.2880       264
  14.3100       234
  14.3320       247
  14.3540       261
  14.3760       253
  14.3980       235
  14.4200       287
  14.4420       228
  14.4640       243
  14.4860       251
  14.5080       239
  14.5300       253
  14.5520       278
  14.5740       244
  14.5960       250
  14.6180       230
  14.6400       243
  14.6620       258
  14.6840       254
  14.7060       262
  14.7280       266
  14.7500       240
  14.7720       253
  14.7940       254
  14.8160       240
  14.8380       252
  14.8600       258
  14.8820       252
  14.9040       260
  14.9260       251
  14.9480       270
  14.9700       254
  14.9920       244
  15.0140       267
  15.0360       261
  15.0580       270
  15.0800       233
  15.1020       252
  15.1240       255
  15.1460       276
  15.1680       252
  15.1900       246
  15.2120       256
  15.2340       261
  15.2560       243
  15.2780       239
  15.3000       255
  15.3220       266
  15.3440       250
  15.3660       249
  15.3880       266
  15.4100       210
  15.4320       289
  15.4540       245
  15.4760       259
  15.4980       236
  15.5200       243
  15.5420       251
  15.5640       251
  15.5860       285
  15.6080       263
  15.6300       256
  15.6520       267
  15.6740       268
  15.6960       276
  15.7180       264
  15.7400       234
  15.7620       232
  15.7840       243
  15.8060       255
  15.8280       266
  15.8500       292
  15.8720       281
  15.8940       261
  15.9160       267
  15.9380       260
  15.9600       254
  15.9820       275
  16.0040       240
  16.0260       292
  16.0480       275
  16.0700       252
  16.0920       253
  16.1140       275
  16.1360       260
  16.1580       273
  16.1800       279
  16.2020       287
  16.2240       257
  16.2460       261
  16.2680       248
  16.2900       241
  16.3120       267
  16.3340       262
  16.3560       255
  16.3780       267
  16.4000       245
  16.4220       264
  16.4440       268
  16.4660       298
  16.4880       270
  16.5100       289
  16.5320       236
  16.5540       272
  16.5760       259
  16.5980       264
  16.6200       281
  16.6420       251
  16.6640       259
  16.6860       268
  16.7080       250
  16.7300       281
  16.7520       266
  16.7740       262
  16.7960       277
  16.8180       255
  16.8400       248
  16.8620       300
  16.8840       318
  16.9060       267
  16.9280       297
  16.9500       267
  16.9720       268
  16.9940       275
  17.0160       307
  17.0380       236
  17.0600       263
  17.0820       258
  17.1040       287
  17.1260       253
  17.1480       302
  17.1700       282
  17.1920       292
  17.2140       270
  17.2360       288
  17.2580       306
  17.2800       283
  17.3020       263
  17.3240       297
  17.3460       277
  17.3680       287
  17.3900       287
  17.4120       294
  17.4340       285
  17.4560       273
  17.4780       268
  17.5000       287
  17.5220       270
  17.5440       270
  17.5660       282
  17.5880       294
  17.6100       276
  17.6320       246
  17.6540       262
  17.6760       249
  17.6980       257
  17.7200       307
  17.7420       287
  17.7640       281
  17.7860       307
  17.8080       341
  17.8300       261
  17.8520       307
  17.8740       305
  17.8960       303
  17.9180       308
  17.9400       272
  17.9620       289
  17.9840       306
  18.0060       274
  18.0280       296
  18.0500       284
  18.0720       290
  18.0940       291
  18.1160       298
  18.1380       305
  18.1600       307
  18.1820       273
  18.2040       312
  18.2260       270
  18.2480       263
  18.2700       295
  18.2920       309
  18.3140       276
  18.3360       270
  18.3580       297
  18.3800       309
  18.4020       312
  18.4240       287
  18.4460       335
  18.4680       301
  18.4900       311
  18.5120       292
  18.5340       325
  18.5560       297
  18.5780       303
  18.6000       304
  18.6220       300
  18.6440       301
  18.6660       277
  18.6880       274
  18.7100       311
  18.7320       318
  18.7540       294
  18.7760       325
  18.7980       294
  18.8200       306
  18.8420       304
  18.8640       327
  18.8860       311
  18.9080       318
  18.9300       322
  18.9520       296
  18.9740       313
  18.9960       336
  19.0180       329
  19.0400       305
  19.0620       330
  19.0840       311
  19.1060       307
  19.1280       323
  19.1500       294
  19.1720       308
  19.1940       315
  19.2160       300
  19.2380       303
  19.2600       320
  19.2820       288
  19.3040       322
  19.3260       339
  19.3480       304
  19.3700       310
  19.3920       325
  19.4140       293
  19.4360       282
  19.4580       279
  19.4800       309
  19.5020       298
  19.5240       312
  19.5460       293
  19.5680       330
  19.5900       353
  19.6120       322
  19.6340       395
  19.6560       317
  19.6780       321
  19.7000       286
  19.7220       336
  19.7440       339
  19.7660       319
  19.7880       306
  19.8100       344
  19.8320       299
  19.8540       302
  19.8760       285
  19.8980       336
  19.9200       297
  19.9420       338
  19.9640       349
  19.9860       351
  20.0080       306
  20.0300       324
  20.0520       327
  20.0740       337
  20.0960       270
  20.1180       325
  20.1400       320
  20.1620       328
  20.1840       337
  20.2060       332
  20.2280       306
  20.2500       321
  20.2720       351
  20.2940       302
  20.3160       312
  20.3380       352
  20.3600       324
  20.3820       354
  20.4040       306
  20.4260       330
  20.4480       312
  20.4700       337
  20.4920       367
  20.5140       343
  20.5360       361
  20.5580       361
  20.5800       341
  20.6020       336
  20.6240       347
  20.6460       371
  20.6680       355
  20.6900       347
  20.7120       361
  20.7340       339
  20.7560       368
  20.7780       340
  20.8000       358
  20.8220       345
  20.8440       324
  20.8660       390
  20.8880       330
  20.9100       360
  20.9320       337
  20.9540       335
  20.9760       365
  20.9980       336
  21.0200       366
  21.0420       374
  21.0640       373
  21.0860       363
  21.1080       368
  21.1300       366
  21.1520       349
  21.1740       344
  21.1960       353
  21.2180       371
  21.2400       383
  21.2620       351
  21.2840       358
  21.3060       370
  21.3280       341
  21.3500       372
  21.3720       341
  21.3940       334
  21.4160       368
  21.4380       354
  21.4600       364
  21.4820       338
  21.5040       364
  21.5260       357
  21.5480       347
  21.5700       348
  21.5920       379
  21.6140       380
  21.6360       377
  21.6580       326
  21.6800       362
  21.7020       375
  21.7240       343
  21.7460       355
  21.7680       381
  21.7900       366
  21.8120       374
  21.8340       360
  21.8560       360
  21.8780       355
  21.9000       383
  21.9220       352
  21.9440       403
  21.9660       329
  21.9880       366
  22.0100       413
  22.0320       366
  22.0540       343
  22.0760       375
  22.0980       364
  22.1200       381
  22.1420       356
  22.1640       389
  22.1860       375
  22.2080       362
  22.2300       407
  22.2520       397
  22.2740       465
  22.2960       365
  22.3180       371
  22.3400       364
  22.3620       412
  22.3840       380
  22.4060       349
  22.4280       389
  22.4500       385
  22.4720       386
  22.4940       381
  22.5160       369
  22.5380       402
  22.5600       404
  22.5820       395
  22.6040       357
  22.6260       423
  22.6480       402
  22.6700       417
  22.6920       416
  22.7140       406
  22.7360       377
  22.7580       369
  22.7800       419
  22.8020       424
  22.8240       388
  22.8460       430
  22.8680       379
  22.8900       383
  22.9120       393
  22.9340       365
  22.9560       394
  22.9780       461
  23.0000       441
  23.0220       456
  23.0440       437
  23.0660       443
  23.0880       442
  23.1100       433
  23.1320       450
  23.1540       434
  23.1760       443
  23.1980       454
  23.2200       405
  23.2420       442
  23.2640       497
  23.2860       456
  23.3080       512
  23.3300       480
  23.3520       490
  23.3740       494
  23.3960       528
  23.4180       509
  23.4400       530
  23.4620       492
  23.4840       516
  23.5060       530
  23.5280       521
  23.5500       509
  23.5720       559
  23.5940       563
  23.6160       522
  23.6380       567
  23.6600       529
  23.6820       531
  23.7040       511
  23.7260       483
  23.7480       485
  23.7700       513
  23.7920       510
  23.8140       537
  23.8360       492
  23.8580       484
  23.8800       478
  23.9020       458
  23.9240       479
  23.9460       467
  23.9680       466
  23.9900       461
  24.0120       458
  24.0340       458
  24.0560       435
  24.0780       425
  24.1000       466
  24.1220       433
  24.1440       466
  24.1660       440
  24.1880       422
  24.2100       440
  24.2320       437
  24.2540       411
  24.2760       443
  24.2980       418
  24.3200       441
  24.3420       431
  24.3640       421
  24.3860       417
  24.4080       451
  24.4300       420
  24.4520       444
  24.4740       398
  24.4960       416
  24.5180       419
  24.5400       407
  24.5620       386
  24.5840       423
  24.6060       439
  24.6280       396
  24.6500       396
  24.6720       435
  24.6940       414
  24.7160       409
  24.7380       397
  24.7600       431
  24.7820       397
  24.8040       407
  24.8260       412
  24.8480       464
  24.8700       411
  24.8920       424
  24.9140       400
  24.9360       436
  24.9580       376
  24.9800       428
  25.0020       415
  25.0240       422
  25.0460       412
  25.0680       399
  25.0900       393
  25.1120       436
  25.1340       375
  25.1560       385
  25.1780       394
  25.2000       379
  25.2220       380
  25.2440       388
  25.2660       421
  25.2880       397
  25.3100       381
  25.3320       392
  25.3540       387
  25.3760       379
  25.3980       384
  25.4200       425
  25.4420       419
  25.4640       380
  25.4860       401
  25.5080       410
  25.5300       403
  25.5520       393
  25.5740       403
  25.5960       406
  25.6180       420
  25.6400       395
  25.6620       400
  25.6840       393
  25.7060       397
  25.7280       426
  25.7500       356
  25.7720       406
  25.7940       370
  25.8160       401
  25.8380       370
  25.8600       435
  25.8820       399
  25.9040       360
  25.9260       381
  25.9480       405
  25.9700       380
  25.9920       373
  26.0140       389
  26.0360       437
  26.0580       400
  26.0800       370
  26.1020       413
  26.1240       408
  26.1460       432
  26.1680       337
  26.1900       364
  26.2120       376
  26.2340       356
  26.2560       403
  26.2780       395
  26.3000       385
  26.3220       402
  26.3440       382
  26.3660       391
  26.3880       424
  26.4100       345
  26.4320       390
  26.4540       387
  26.4760       421
  26.4980       409
  26.5200       397
  26.5420       376
  26.5640       365
  26.5860       404
  26.6080       437
  26.6300       381
  26.6520       383
  26.6740       354
  26.6960       365
  26.7180       412
  26.7400       405
  26.7620       364
  26.7840       415
  26.8060       392
  26.8280       365
  26.8500       399
  26.8720       397
  26.8940       401
  26.9160       376
  26.9380       373
  26.9600       405
  26.9820       373
  27.0040       391
  27.0260       411
  27.0480       394
  27.0700       380
  27.0920       378
  27.1140       384
  27.1360       410
  27.1580       366
  27.1800       424
  27.2020       362
  27.2240       388
  27.2460       398
  27.2680       397
  27.2900       374
  27.3120       395
  27.3340       370
  27.3560       426
  27.3780       420
  27.4000       408
  27.4220       406
  27.4440       371
  27.4660       374
  27.4880       359
  27.5100       367
  27.5320       355
  27.5540       405
  27.5760       379
  27.5980       419
  27.6200       399
  27.6420       424
  27.6640       375
  27.6860       387
  27.7080       370
  27.7300       412
  27.7520       365
  27.7740       401
  27.7960       372
  27.8180       402
  27.8400       377
  27.8620       410
  27.8840       415
  27.9060       391
  27.9280       366
  27.9500       428
  27.9720       380
  27.9940       394
  28.0160       412
  28.0380       371
  28.0600       397
  28.0820       363
  28.1040       406
  28.1260       399
  28.1480       383
  28.1700       398
  28.1920       409
  28.2140       373
  28.2360       395
  28.2580       403
  28.2800       350
  28.3020       386
  28.3240       385
  28.3460       379
  28.3680       400
  28.3900       397
  28.4120       392
  28.4340       328
  28.4560       383
  28.4780       384
  28.5000       401
  28.5220       364
  28.5440       376
  28.5660       405
  28.5880       362
  28.6100       375
  28.6320       376
  28.6540       400
  28.6760       370
  28.6980       387
  28.7200       386
  28.7420       369
  28.7640       378
  28.7860       398
  28.8080       375
  28.8300       356
  28.8520       398
  28.8740       384
  28.8960       356
  28.9180       417
  28.9400       385
  28.9620       381
  28.9840       367
  29.0060       414
  29.0280       400
  29.0500       352
  29.0720       343
  29.0940       408
  29.1160       426
  29.1380       369
  29.1600       373
  29.1820       359
  29.2040       382
  29.2260       345
  29.2480       393
  29.2700       397
  29.2920       414
  29.3140       355
  29.3360       373
  29.3580       379
  29.3800       345
  29.4020       376
  29.4240       423
  29.4460       371
  29.4680       380
  29.4900       366
  29.5120       366
  29.5340       383
  29.5560       385
  29.5780       401
  29.6000       395
  29.6220       370
  29.6440       381
  29.6660       390
  29.6880       408
  29.7100       411
  29.7320       370
  29.7540       400
  29.7760       388
  29.7980       391
  29.8200       382
  29.8420       394
  29.8640       397
  29.8860       380
  29.9080       393
  29.9300       363
  29.9520       391
  29.9740       353
  29.9960       403
  30.0180       381
  30.0400       395
  30.0620       335
  30.0840       402
  30.1060       339
  30.1280       383
  30.1500       389
  30.1720       382
  30.1940       394
  30.2160       393
  30.2380       397
  30.2600       374
  30.2820       358
  30.3040       391
  30.3260       401
  30.3480       368
  30.3700       408
  30.3920       361
  30.4140       391
  30.4360       394
  30.4580       402
  30.4800       359
  30.5020       378
  30.5240       365
  30.5460       379
  30.5680       400
  30.5900       361
  30.6120       365
  30.6340       348
  30.6560       391
  30.6780       397
  30.7000       393
  30.7220       374
  30.7440       372
  30.7660       381
  30.7880       377
  30.8100       376
  30.8320       378
  30.8540       425
  30.8760       376
  30.8980       366
  30.9200       351
  30.9420       363
  30.9640       353
  30.9860       371
  31.0080       422
  31.0300       366
  31.0520       361
  31.0740       381
  31.0960       398
  31.1180       393
  31.1400       383
  31.1620       379
  31.1840       358
  31.2060       390
  31.2280       410
  31.2500       351
  31.2720       360
  31.2940       388
  31.3160       355
  31.3380       388
  31.3600       404
  31.3820       382
  31.4040       370
  31.4260       359
  31.4480       408
  31.4700       366
  31.4920       397
  31.5140       382
  31.5360       383
  31.5580       378
  31.5800       371
  31.6020       408
  31.6240       377
  31.6460       368
  31.6680       358
  31.6900       382
  31.7120       377
  31.7340       380
