; C:\Data\Froehlich\Praktikum\2016-02-09_ignatiev\probe1.raw(Diffrac Plus V1.01 file) converted by XCH V1.0
_FILEVERSION=2
_SAMPLE='Probe1'
_SITE='II. Physikalisches Institut'
_ATTACHMENTS_CODE=0
_GONIOMETER_RADIUS=200.500000
_FIXED_DIVSLIT=2.000000
_FIXED_SAMPLESLIT=1.000000
_FIXED_DETSLIT=0.200000
_MONOCHROMATOR=0
; None
_THIN_FILM='N'
_BETA_FILTER='Y'
_FIXED_ANTISLIT=2.000000
_ANALYZER_CODE=0
; None
_DATEMEASURED='09-Feb-2016 18:08:43'
_WL_UNIT='A'
_WL1=1.540590
_WL2=1.544430
_WL3=1.392230
_WLRATIO=0.520000
_ANODE='Cu'
; (Data for Range number 1)
_DRIVE='COUPLED'
_STEPTIME=2.000000
_STEPSIZE=0.022000
_STEPMODE='C'
_START=12.000000
_THETA=6.000000
_2THETA=12.000000
_KHI=0.000000
_PHI=0.000000
_X=0.000000
_Y=0.000000
_Z=0.000000
_DIVERGENCE=0.000000
_ANTISCATTER=0.000000
_DETECTOR=1
; S.C.
_HV=1000.000000
_GAIN=80.000000
_LLD=0.550000
_ULD=1.310000
_DETECTORSLIT='unkn'
_AUX1=0.000000
_AUX2=0.000000
_AUX3=0.000000
_TIMESTARTED=18.000000
_ROTATION_SPEED=120.000000
_TEMP_RATE=-1.000000
_TEMP_DELAY=-1.000000
_KV=40
_MA=40
_RANGE_WL=1.540590
_3DPLANE=0
_2THETACOUNTS
  12.0000       302
  12.0220       294
  12.0440       268
  12.0660       305
  12.0880       315
  12.1100       290
  12.1320       288
  12.1540       295
  12.1760       291
  12.1980       316
  12.2200       296
  12.2420       304
  12.2640       315
  12.2860       290
  12.3080       305
  12.3300       321
  12.3520       326
  12.3740       290
  12.3960       295
  12.4180       293
  12.4400       289
  12.4620       307
  12.4840       311
  12.5060       266
  12.5280       285
  12.5500       321
  12.5720       308
  12.5940       317
  12.6160       296
  12.6380       300
  12.6600       296
  12.6820       287
  12.7040       285
  12.7260       263
  12.7480       309
  12.7700       273
  12.7920       320
  12.8140       294
  12.8360       273
  12.8580       301
  12.8800       293
  12.9020       302
  12.9240       306
  12.9460       287
  12.9680       310
  12.9900       296
  13.0120       320
  13.0340       271
  13.0560       276
  13.0780       283
  13.1000       295
  13.1220       271
  13.1440       281
  13.1660       310
  13.1880       269
  13.2100       294
  13.2320       279
  13.2540       260
  13.2760       267
  13.2980       318
  13.3200       279
  13.3420       279
  13.3640       301
  13.3860       288
  13.4080       281
  13.4300       289
  13.4520       276
  13.4740       294
  13.4960       268
  13.5180       289
  13.5400       255
  13.5620       298
  13.5840       310
  13.6060       287
  13.6280       294
  13.6500       295
  13.6720       279
  13.6940       290
  13.7160       282
  13.7380       307
  13.7600       320
  13.7820       275
  13.8040       273
  13.8260       301
  13.8480       313
  13.8700       299
  13.8920       289
  13.9140       301
  13.9360       309
  13.9580       293
  13.9800       305
  14.0020       299
  14.0240       305
  14.0460       300
  14.0680       293
  14.0900       284
  14.1120       286
  14.1340       315
  14.1560       305
  14.1780       276
  14.2000       307
  14.2220       300
  14.2440       312
  14.2660       320
  14.2880       288
  14.3100       282
  14.3320       314
  14.3540       311
  14.3760       290
  14.3980       269
  14.4200       271
  14.4420       295
  14.4640       303
  14.4860       285
  14.5080       272
  14.5300       278
  14.5520       295
  14.5740       287
  14.5960       301
  14.6180       286
  14.6400       302
  14.6620       297
  14.6840       298
  14.7060       287
  14.7280       267
  14.7500       273
  14.7720       287
  14.7940       301
  14.8160       286
  14.8380       322
  14.8600       284
  14.8820       317
  14.9040       305
  14.9260       322
  14.9480       278
  14.9700       313
  14.9920       280
  15.0140       295
  15.0360       289
  15.0580       268
  15.0800       268
  15.1020       270
  15.1240       332
  15.1460       295
  15.1680       298
  15.1900       291
  15.2120       271
  15.2340       289
  15.2560       317
  15.2780       282
  15.3000       281
  15.3220       275
  15.3440       307
  15.3660       288
  15.3880       306
  15.4100       289
  15.4320       245
  15.4540       280
  15.4760       314
  15.4980       283
  15.5200       290
  15.5420       294
  15.5640       308
  15.5860       294
  15.6080       307
  15.6300       298
  15.6520       312
  15.6740       296
  15.6960       291
  15.7180       302
  15.7400       305
  15.7620       294
  15.7840       327
  15.8060       281
  15.8280       285
  15.8500       314
  15.8720       308
  15.8940       324
  15.9160       314
  15.9380       297
  15.9600       313
  15.9820       300
  16.0040       313
  16.0260       316
  16.0480       268
  16.0700       313
  16.0920       278
  16.1140       266
  16.1360       308
  16.1580       320
  16.1800       297
  16.2020       335
  16.2240       315
  16.2460       282
  16.2680       303
  16.2900       302
  16.3120       319
  16.3340       293
  16.3560       281
  16.3780       309
  16.4000       314
  16.4220       303
  16.4440       335
  16.4660       314
  16.4880       304
  16.5100       358
  16.5320       351
  16.5540       288
  16.5760       333
  16.5980       331
  16.6200       275
  16.6420       301
  16.6640       321
  16.6860       283
  16.7080       291
  16.7300       314
  16.7520       331
  16.7740       316
  16.7960       355
  16.8180       305
  16.8400       328
  16.8620       312
  16.8840       310
  16.9060       302
  16.9280       337
  16.9500       318
  16.9720       335
  16.9940       300
  17.0160       305
  17.0380       322
  17.0600       313
  17.0820       325
  17.1040       333
  17.1260       327
  17.1480       321
  17.1700       331
  17.1920       347
  17.2140       376
  17.2360       282
  17.2580       340
  17.2800       333
  17.3020       308
  17.3240       323
  17.3460       339
  17.3680       325
  17.3900       331
  17.4120       336
  17.4340       294
  17.4560       342
  17.4780       295
  17.5000       336
  17.5220       299
  17.5440       303
  17.5660       308
  17.5880       299
  17.6100       342
  17.6320       361
  17.6540       345
  17.6760       303
  17.6980       322
  17.7200       333
  17.7420       322
  17.7640       357
  17.7860       327
  17.8080       309
  17.8300       327
  17.8520       315
  17.8740       344
  17.8960       305
  17.9180       364
  17.9400       356
  17.9620       330
  17.9840       324
  18.0060       321
  18.0280       345
  18.0500       332
  18.0720       349
  18.0940       347
  18.1160       313
  18.1380       342
  18.1600       327
  18.1820       311
  18.2040       316
  18.2260       336
  18.2480       310
  18.2700       374
  18.2920       372
  18.3140       348
  18.3360       333
  18.3580       383
  18.3800       319
  18.4020       323
  18.4240       332
  18.4460       339
  18.4680       327
  18.4900       348
  18.5120       335
  18.5340       317
  18.5560       344
  18.5780       358
  18.6000       402
  18.6220       385
  18.6440       361
  18.6660       373
  18.6880       356
  18.7100       359
  18.7320       314
  18.7540       335
  18.7760       363
  18.7980       363
  18.8200       364
  18.8420       351
  18.8640       347
  18.8860       335
  18.9080       384
  18.9300       361
  18.9520       352
  18.9740       361
  18.9960       371
  19.0180       338
  19.0400       347
  19.0620       378
  19.0840       351
  19.1060       332
  19.1280       363
  19.1500       380
  19.1720       377
  19.1940       361
  19.2160       402
  19.2380       349
  19.2600       360
  19.2820       338
  19.3040       373
  19.3260       375
  19.3480       348
  19.3700       378
  19.3920       372
  19.4140       351
  19.4360       350
  19.4580       362
  19.4800       377
  19.5020       388
  19.5240       392
  19.5460       365
  19.5680       392
  19.5900       379
  19.6120       377
  19.6340       377
  19.6560       373
  19.6780       386
  19.7000       383
  19.7220       391
  19.7440       377
  19.7660       395
  19.7880       367
  19.8100       360
  19.8320       382
  19.8540       386
  19.8760       350
  19.8980       398
  19.9200       392
  19.9420       369
  19.9640       361
  19.9860       387
  20.0080       349
  20.0300       362
  20.0520       407
  20.0740       396
  20.0960       380
  20.1180       365
  20.1400       352
  20.1620       394
  20.1840       424
  20.2060       391
  20.2280       346
  20.2500       385
  20.2720       383
  20.2940       384
  20.3160       378
  20.3380       401
  20.3600       360
  20.3820       381
  20.4040       375
  20.4260       392
  20.4480       374
  20.4700       393
  20.4920       403
  20.5140       423
  20.5360       413
  20.5580       381
  20.5800       364
  20.6020       382
  20.6240       405
  20.6460       374
  20.6680       420
  20.6900       420
  20.7120       392
  20.7340       404
  20.7560       423
  20.7780       415
  20.8000       421
  20.8220       348
  20.8440       373
  20.8660       376
  20.8880       411
  20.9100       390
  20.9320       400
  20.9540       379
  20.9760       423
  20.9980       403
  21.0200       406
  21.0420       409
  21.0640       424
  21.0860       388
  21.1080       446
  21.1300       388
  21.1520       395
  21.1740       420
  21.1960       393
  21.2180       401
  21.2400       394
  21.2620       408
  21.2840       365
  21.3060       401
  21.3280       412
  21.3500       421
  21.3720       422
  21.3940       442
  21.4160       455
  21.4380       390
  21.4600       439
  21.4820       415
  21.5040       437
  21.5260       413
  21.5480       416
  21.5700       413
  21.5920       381
  21.6140       409
  21.6360       457
  21.6580       423
  21.6800       409
  21.7020       418
  21.7240       406
  21.7460       427
  21.7680       434
  21.7900       416
  21.8120       413
  21.8340       397
  21.8560       447
  21.8780       407
  21.9000       449
  21.9220       384
  21.9440       406
  21.9660       454
  21.9880       401
  22.0100       408
  22.0320       427
  22.0540       420
  22.0760       453
  22.0980       437
  22.1200       427
  22.1420       450
  22.1640       407
  22.1860       457
  22.2080       443
  22.2300       428
  22.2520       422
  22.2740       447
  22.2960       420
  22.3180       464
  22.3400       437
  22.3620       460
  22.3840       427
  22.4060       413
  22.4280       436
  22.4500       433
  22.4720       447
  22.4940       408
  22.5160       446
  22.5380       415
  22.5600       454
  22.5820       493
  22.6040       446
  22.6260       438
  22.6480       434
  22.6700       441
  22.6920       419
  22.7140       444
  22.7360       443
  22.7580       469
  22.7800       474
  22.8020       432
  22.8240       432
  22.8460       423
  22.8680       437
  22.8900       482
  22.9120       421
  22.9340       409
  22.9560       434
  22.9780       443
  23.0000       481
  23.0220       440
  23.0440       449
  23.0660       423
  23.0880       480
  23.1100       434
  23.1320       432
  23.1540       410
  23.1760       446
  23.1980       411
  23.2200       431
  23.2420       414
  23.2640       445
  23.2860       469
  23.3080       448
  23.3300       468
  23.3520       451
  23.3740       497
  23.3960       442
  23.4180       439
  23.4400       460
  23.4620       439
  23.4840       432
  23.5060       454
  23.5280       447
  23.5500       444
  23.5720       421
  23.5940       433
  23.6160       432
  23.6380       448
  23.6600       435
  23.6820       447
  23.7040       455
  23.7260       470
  23.7480       426
  23.7700       480
  23.7920       463
  23.8140       434
  23.8360       452
  23.8580       457
  23.8800       465
  23.9020       447
  23.9240       439
  23.9460       474
  23.9680       460
  23.9900       458
  24.0120       476
  24.0340       410
  24.0560       451
  24.0780       446
  24.1000       444
  24.1220       423
  24.1440       480
  24.1660       454
  24.1880       420
  24.2100       446
  24.2320       498
  24.2540       455
  24.2760       475
  24.2980       472
  24.3200       472
  24.3420       465
  24.3640       444
  24.3860       482
  24.4080       432
  24.4300       449
  24.4520       452
  24.4740       444
  24.4960       447
  24.5180       473
  24.5400       454
  24.5620       452
  24.5840       451
  24.6060       448
  24.6280       480
  24.6500       413
  24.6720       438
  24.6940       446
  24.7160       445
  24.7380       483
  24.7600       445
  24.7820       434
  24.8040       458
  24.8260       463
  24.8480       462
  24.8700       461
  24.8920       426
  24.9140       412
  24.9360       458
  24.9580       413
  24.9800       447
  25.0020       438
  25.0240       454
  25.0460       436
  25.0680       430
  25.0900       465
  25.1120       474
  25.1340       428
  25.1560       499
  25.1780       466
  25.2000       449
  25.2220       430
  25.2440       448
  25.2660       461
  25.2880       432
  25.3100       450
  25.3320       451
  25.3540       417
  25.3760       443
  25.3980       423
  25.4200       428
  25.4420       399
  25.4640       431
  25.4860       448
  25.5080       448
  25.5300       428
  25.5520       447
  25.5740       418
  25.5960       456
  25.6180       406
  25.6400       440
  25.6620       437
  25.6840       451
  25.7060       496
  25.7280       433
  25.7500       447
  25.7720       451
  25.7940       426
  25.8160       435
  25.8380       476
  25.8600       469
  25.8820       444
  25.9040       456
  25.9260       471
  25.9480       446
  25.9700       456
  25.9920       428
  26.0140       456
  26.0360       462
  26.0580       458
  26.0800       439
  26.1020       411
  26.1240       492
  26.1460       433
  26.1680       430
  26.1900       474
  26.2120       452
  26.2340       448
  26.2560       488
  26.2780       437
  26.3000       423
  26.3220       434
  26.3440       479
  26.3660       448
  26.3880       428
  26.4100       428
  26.4320       446
  26.4540       433
  26.4760       453
  26.4980       438
  26.5200       436
  26.5420       439
  26.5640       455
  26.5860       461
  26.6080       464
  26.6300       431
  26.6520       448
  26.6740       436
  26.6960       459
  26.7180       457
  26.7400       498
  26.7620       462
  26.7840       443
  26.8060       402
  26.8280       465
  26.8500       467
  26.8720       443
  26.8940       460
  26.9160       427
  26.9380       439
  26.9600       460
  26.9820       462
  27.0040       433
  27.0260       447
  27.0480       477
  27.0700       447
  27.0920       411
  27.1140       439
  27.1360       479
  27.1580       449
  27.1800       439
  27.2020       432
  27.2240       445
  27.2460       458
  27.2680       442
  27.2900       469
  27.3120       476
  27.3340       458
  27.3560       469
  27.3780       441
  27.4000       462
  27.4220       406
  27.4440       435
  27.4660       431
  27.4880       443
  27.5100       434
  27.5320       469
  27.5540       461
  27.5760       446
  27.5980       459
  27.6200       465
  27.6420       454
  27.6640       416
  27.6860       438
  27.7080       496
  27.7300       442
  27.7520       462
  27.7740       422
  27.7960       427
  27.8180       433
  27.8400       421
  27.8620       440
  27.8840       462
  27.9060       438
  27.9280       435
  27.9500       428
  27.9720       454
  27.9940       453
  28.0160       455
  28.0380       441
  28.0600       426
  28.0820       433
  28.1040       448
  28.1260       442
  28.1480       456
  28.1700       466
  28.1920       456
  28.2140       435
  28.2360       463
  28.2580       406
  28.2800       462
  28.3020       460
  28.3240       449
  28.3460       444
  28.3680       479
  28.3900       471
  28.4120       440
  28.4340       452
  28.4560       384
  28.4780       489
  28.5000       429
  28.5220       449
  28.5440       453
  28.5660       453
  28.5880       453
  28.6100       448
  28.6320       486
  28.6540       458
  28.6760       433
  28.6980       451
  28.7200       423
  28.7420       446
  28.7640       411
  28.7860       446
  28.8080       437
  28.8300       411
  28.8520       466
  28.8740       406
  28.8960       498
  28.9180       410
  28.9400       441
  28.9620       418
  28.9840       468
  29.0060       435
  29.0280       443
  29.0500       432
  29.0720       426
  29.0940       451
  29.1160       450
  29.1380       420
  29.1600       430
  29.1820       445
  29.2040       455
  29.2260       416
  29.2480       476
  29.2700       443
  29.2920       442
  29.3140       426
  29.3360       457
  29.3580       427
  29.3800       423
  29.4020       440
  29.4240       480
  29.4460       435
  29.4680       423
  29.4900       484
  29.5120       430
  29.5340       415
  29.5560       439
  29.5780       455
  29.6000       458
  29.6220       403
  29.6440       399
  29.6660       420
  29.6880       465
  29.7100       414
  29.7320       441
  29.7540       411
  29.7760       410
  29.7980       429
  29.8200       440
  29.8420       437
  29.8640       408
  29.8860       434
  29.9080       429
  29.9300       441
  29.9520       407
  29.9740       374
  29.9960       437
  30.0180       441
  30.0400       377
  30.0620       424
  30.0840       443
  30.1060       456
  30.1280       434
  30.1500       411
  30.1720       442
  30.1940       426
  30.2160       437
  30.2380       411
  30.2600       418
  30.2820       394
  30.3040       449
  30.3260       430
  30.3480       404
  30.3700       396
  30.3920       427
  30.4140       426
  30.4360       427
  30.4580       406
  30.4800       408
  30.5020       437
  30.5240       430
  30.5460       451
  30.5680       443
  30.5900       389
  30.6120       437
  30.6340       450
  30.6560       438
  30.6780       424
  30.7000       410
  30.7220       396
  30.7440       414
  30.7660       417
  30.7880       433
  30.8100       473
  30.8320       390
  30.8540       398
  30.8760       464
  30.8980       423
  30.9200       427
  30.9420       448
  30.9640       449
  30.9860       421
  31.0080       435
  31.0300       433
  31.0520       440
  31.0740       407
  31.0960       473
  31.1180       426
  31.1400       400
  31.1620       417
  31.1840       423
  31.2060       420
  31.2280       372
  31.2500       431
  31.2720       451
  31.2940       435
  31.3160       437
  31.3380       447
  31.3600       441
  31.3820       432
  31.4040       431
  31.4260       429
  31.4480       405
  31.4700       448
  31.4920       443
  31.5140       433
  31.5360       458
  31.5580       436
  31.5800       427
  31.6020       451
  31.6240       472
  31.6460       455
  31.6680       397
  31.6900       460
  31.7120       442
  31.7340       439
