; C:\Data\Froehlich\Praktikum\faber\probe1.raw(Diffrac Plus V1.01 file) converted by XCH V1.0
_FILEVERSION=2
_SAMPLE='probe1'
_SITE='II. Physikalisches Institut'
_ATTACHMENTS_CODE=0
_GONIOMETER_RADIUS=200.500000
_FIXED_DIVSLIT=2.000000
_FIXED_SAMPLESLIT=1.000000
_FIXED_DETSLIT=0.200000
_MONOCHROMATOR=0
; None
_THIN_FILM='N'
_BETA_FILTER='Y'
_FIXED_ANTISLIT=2.000000
_ANALYZER_CODE=0
; None
_DATEMEASURED='14-Nov-2015 01:56:36'
_WL_UNIT='A'
_WL1=1.540590
_WL2=1.544430
_WL3=1.392230
_WLRATIO=0.520000
_ANODE='Cu'
; (Data for Range number 1)
_DRIVE='COUPLED'
_STEPTIME=2.000000
_STEPSIZE=0.022000
_STEPMODE='C'
_START=12.000000
_THETA=6.000000
_2THETA=12.000000
_KHI=0.000000
_PHI=0.000000
_X=0.000000
_Y=0.000000
_Z=0.000000
_DIVERGENCE=0.000000
_ANTISCATTER=0.000000
_DETECTOR=1
; S.C.
_HV=1000.000000
_GAIN=80.000000
_LLD=0.550000
_ULD=1.310000
_DETECTORSLIT='unkn'
_AUX1=0.000000
_AUX2=0.000000
_AUX3=0.000000
_TIMESTARTED=14.000000
_ROTATION_SPEED=120.000000
_TEMP_RATE=-1.000000
_TEMP_DELAY=-1.000000
_KV=40
_MA=40
_RANGE_WL=1.540590
_3DPLANE=0
_2THETACOUNTS
  12.0000       301
  12.0220       273
  12.0440       262
  12.0660       320
  12.0880       309
  12.1100       311
  12.1320       295
  12.1540       291
  12.1760       329
  12.1980       322
  12.2200       303
  12.2420       273
  12.2640       292
  12.2860       308
  12.3080       304
  12.3300       305
  12.3520       312
  12.3740       292
  12.3960       314
  12.4180       276
  12.4400       297
  12.4620       302
  12.4840       305
  12.5060       314
  12.5280       265
  12.5500       275
  12.5720       314
  12.5940       274
  12.6160       284
  12.6380       312
  12.6600       301
  12.6820       271
  12.7040       310
  12.7260       307
  12.7480       295
  12.7700       281
  12.7920       289
  12.8140       273
  12.8360       282
  12.8580       295
  12.8800       273
  12.9020       283
  12.9240       277
  12.9460       280
  12.9680       302
  12.9900       280
  13.0120       290
  13.0340       291
  13.0560       275
  13.0780       302
  13.1000       295
  13.1220       268
  13.1440       288
  13.1660       285
  13.1880       274
  13.2100       280
  13.2320       288
  13.2540       285
  13.2760       299
  13.2980       278
  13.3200       301
  13.3420       267
  13.3640       277
  13.3860       267
  13.4080       304
  13.4300       261
  13.4520       289
  13.4740       280
  13.4960       277
  13.5180       322
  13.5400       292
  13.5620       256
  13.5840       290
  13.6060       291
  13.6280       266
  13.6500       282
  13.6720       273
  13.6940       281
  13.7160       279
  13.7380       265
  13.7600       283
  13.7820       293
  13.8040       260
  13.8260       287
  13.8480       271
  13.8700       308
  13.8920       287
  13.9140       288
  13.9360       312
  13.9580       289
  13.9800       318
  14.0020       273
  14.0240       295
  14.0460       299
  14.0680       270
  14.0900       278
  14.1120       295
  14.1340       304
  14.1560       283
  14.1780       282
  14.2000       292
  14.2220       295
  14.2440       266
  14.2660       298
  14.2880       259
  14.3100       285
  14.3320       288
  14.3540       301
  14.3760       277
  14.3980       296
  14.4200       303
  14.4420       266
  14.4640       292
  14.4860       256
  14.5080       272
  14.5300       271
  14.5520       254
  14.5740       275
  14.5960       296
  14.6180       275
  14.6400       300
  14.6620       293
  14.6840       272
  14.7060       264
  14.7280       279
  14.7500       255
  14.7720       277
  14.7940       247
  14.8160       251
  14.8380       278
  14.8600       262
  14.8820       269
  14.9040       268
  14.9260       294
  14.9480       292
  14.9700       294
  14.9920       256
  15.0140       256
  15.0360       277
  15.0580       283
  15.0800       257
  15.1020       289
  15.1240       284
  15.1460       273
  15.1680       301
  15.1900       300
  15.2120       289
  15.2340       295
  15.2560       265
  15.2780       281
  15.3000       278
  15.3220       291
  15.3440       293
  15.3660       257
  15.3880       306
  15.4100       284
  15.4320       289
  15.4540       294
  15.4760       295
  15.4980       261
  15.5200       249
  15.5420       286
  15.5640       288
  15.5860       314
  15.6080       268
  15.6300       287
  15.6520       276
  15.6740       261
  15.6960       283
  15.7180       263
  15.7400       273
  15.7620       292
  15.7840       303
  15.8060       295
  15.8280       311
  15.8500       273
  15.8720       270
  15.8940       274
  15.9160       281
  15.9380       251
  15.9600       287
  15.9820       295
  16.0040       325
  16.0260       288
  16.0480       295
  16.0700       291
  16.0920       297
  16.1140       302
  16.1360       296
  16.1580       343
  16.1800       277
  16.2020       288
  16.2240       318
  16.2460       270
  16.2680       307
  16.2900       289
  16.3120       316
  16.3340       293
  16.3560       291
  16.3780       282
  16.4000       315
  16.4220       300
  16.4440       306
  16.4660       266
  16.4880       254
  16.5100       285
  16.5320       302
  16.5540       302
  16.5760       296
  16.5980       272
  16.6200       272
  16.6420       294
  16.6640       325
  16.6860       318
  16.7080       295
  16.7300       297
  16.7520       295
  16.7740       313
  16.7960       294
  16.8180       306
  16.8400       274
  16.8620       307
  16.8840       283
  16.9060       272
  16.9280       305
  16.9500       301
  16.9720       292
  16.9940       323
  17.0160       335
  17.0380       311
  17.0600       299
  17.0820       325
  17.1040       292
  17.1260       293
  17.1480       324
  17.1700       298
  17.1920       312
  17.2140       290
  17.2360       299
  17.2580       290
  17.2800       299
  17.3020       291
  17.3240       319
  17.3460       304
  17.3680       324
  17.3900       289
  17.4120       284
  17.4340       324
  17.4560       278
  17.4780       291
  17.5000       301
  17.5220       268
  17.5440       290
  17.5660       309
  17.5880       309
  17.6100       292
  17.6320       324
  17.6540       269
  17.6760       316
  17.6980       281
  17.7200       308
  17.7420       317
  17.7640       300
  17.7860       311
  17.8080       313
  17.8300       354
  17.8520       285
  17.8740       328
  17.8960       290
  17.9180       296
  17.9400       303
  17.9620       279
  17.9840       299
  18.0060       300
  18.0280       341
  18.0500       324
  18.0720       320
  18.0940       289
  18.1160       302
  18.1380       323
  18.1600       321
  18.1820       310
  18.2040       296
  18.2260       319
  18.2480       334
  18.2700       307
  18.2920       312
  18.3140       299
  18.3360       325
  18.3580       328
  18.3800       296
  18.4020       330
  18.4240       311
  18.4460       300
  18.4680       314
  18.4900       298
  18.5120       320
  18.5340       317
  18.5560       321
  18.5780       349
  18.6000       336
  18.6220       309
  18.6440       333
  18.6660       353
  18.6880       359
  18.7100       307
  18.7320       329
  18.7540       308
  18.7760       314
  18.7980       343
  18.8200       332
  18.8420       347
  18.8640       333
  18.8860       314
  18.9080       335
  18.9300       303
  18.9520       345
  18.9740       299
  18.9960       345
  19.0180       320
  19.0400       345
  19.0620       329
  19.0840       344
  19.1060       349
  19.1280       368
  19.1500       306
  19.1720       350
  19.1940       351
  19.2160       360
  19.2380       318
  19.2600       312
  19.2820       335
  19.3040       342
  19.3260       337
  19.3480       334
  19.3700       345
  19.3920       353
  19.4140       364
  19.4360       318
  19.4580       325
  19.4800       363
  19.5020       359
  19.5240       355
  19.5460       353
  19.5680       307
  19.5900       338
  19.6120       316
  19.6340       307
  19.6560       325
  19.6780       358
  19.7000       364
  19.7220       340
  19.7440       334
  19.7660       342
  19.7880       336
  19.8100       347
  19.8320       322
  19.8540       362
  19.8760       366
  19.8980       355
  19.9200       344
  19.9420       375
  19.9640       320
  19.9860       353
  20.0080       356
  20.0300       368
  20.0520       294
  20.0740       354
  20.0960       351
  20.1180       349
  20.1400       345
  20.1620       351
  20.1840       367
  20.2060       336
  20.2280       393
  20.2500       332
  20.2720       334
  20.2940       397
  20.3160       349
  20.3380       370
  20.3600       346
  20.3820       351
  20.4040       345
  20.4260       374
  20.4480       352
  20.4700       355
  20.4920       374
  20.5140       347
  20.5360       363
  20.5580       370
  20.5800       372
  20.6020       363
  20.6240       369
  20.6460       352
  20.6680       343
  20.6900       375
  20.7120       390
  20.7340       356
  20.7560       372
  20.7780       373
  20.8000       388
  20.8220       357
  20.8440       342
  20.8660       326
  20.8880       376
  20.9100       408
  20.9320       343
  20.9540       366
  20.9760       382
  20.9980       372
  21.0200       352
  21.0420       367
  21.0640       390
  21.0860       360
  21.1080       381
  21.1300       393
  21.1520       372
  21.1740       366
  21.1960       372
  21.2180       377
  21.2400       360
  21.2620       376
  21.2840       371
  21.3060       391
  21.3280       365
  21.3500       377
  21.3720       403
  21.3940       388
  21.4160       389
  21.4380       367
  21.4600       375
  21.4820       364
  21.5040       351
  21.5260       399
  21.5480       387
  21.5700       385
  21.5920       395
  21.6140       388
  21.6360       367
  21.6580       400
  21.6800       392
  21.7020       407
  21.7240       384
  21.7460       394
  21.7680       397
  21.7900       403
  21.8120       366
  21.8340       402
  21.8560       397
  21.8780       395
  21.9000       384
  21.9220       383
  21.9440       388
  21.9660       375
  21.9880       388
  22.0100       359
  22.0320       410
  22.0540       404
  22.0760       390
  22.0980       384
  22.1200       428
  22.1420       371
  22.1640       416
  22.1860       396
  22.2080       374
  22.2300       422
  22.2520       369
  22.2740       412
  22.2960       398
  22.3180       408
  22.3400       407
  22.3620       358
  22.3840       355
  22.4060       399
  22.4280       381
  22.4500       388
  22.4720       407
  22.4940       384
  22.5160       369
  22.5380       399
  22.5600       397
  22.5820       405
  22.6040       390
  22.6260       410
  22.6480       429
  22.6700       385
  22.6920       402
  22.7140       429
  22.7360       426
  22.7580       408
  22.7800       427
  22.8020       390
  22.8240       394
  22.8460       392
  22.8680       411
  22.8900       380
  22.9120       379
  22.9340       378
  22.9560       411
  22.9780       432
  23.0000       425
  23.0220       414
  23.0440       385
  23.0660       401
  23.0880       395
  23.1100       375
  23.1320       399
  23.1540       440
  23.1760       395
  23.1980       384
  23.2200       385
  23.2420       400
  23.2640       450
  23.2860       414
  23.3080       378
  23.3300       389
  23.3520       395
  23.3740       375
  23.3960       372
  23.4180       403
  23.4400       399
  23.4620       422
  23.4840       419
  23.5060       404
  23.5280       437
  23.5500       387
  23.5720       408
  23.5940       429
  23.6160       424
  23.6380       418
  23.6600       405
  23.6820       406
  23.7040       425
  23.7260       446
  23.7480       485
  23.7700       433
  23.7920       401
  23.8140       439
  23.8360       428
  23.8580       473
  23.8800       502
  23.9020       480
  23.9240       453
  23.9460       501
  23.9680       523
  23.9900       508
  24.0120       521
  24.0340       480
  24.0560       548
  24.0780       527
  24.1000       520
  24.1220       480
  24.1440       458
  24.1660       509
  24.1880       462
  24.2100       450
  24.2320       477
  24.2540       430
  24.2760       438
  24.2980       416
  24.3200       446
  24.3420       454
  24.3640       427
  24.3860       414
  24.4080       434
  24.4300       406
  24.4520       392
  24.4740       428
  24.4960       411
  24.5180       386
  24.5400       394
  24.5620       415
  24.5840       393
  24.6060       398
  24.6280       430
  24.6500       403
  24.6720       425
  24.6940       444
  24.7160       399
  24.7380       431
  24.7600       371
  24.7820       400
  24.8040       423
  24.8260       392
  24.8480       438
  24.8700       421
  24.8920       401
  24.9140       392
  24.9360       384
  24.9580       399
  24.9800       392
  25.0020       413
  25.0240       359
  25.0460       410
  25.0680       387
  25.0900       395
  25.1120       388
  25.1340       357
  25.1560       395
  25.1780       384
  25.2000       389
  25.2220       361
  25.2440       373
  25.2660       438
  25.2880       405
  25.3100       394
  25.3320       393
  25.3540       370
  25.3760       408
  25.3980       376
  25.4200       396
  25.4420       392
  25.4640       399
  25.4860       377
  25.5080       406
  25.5300       416
  25.5520       408
  25.5740       428
  25.5960       400
  25.6180       343
  25.6400       399
  25.6620       382
  25.6840       354
  25.7060       360
  25.7280       380
  25.7500       378
  25.7720       389
  25.7940       376
  25.8160       348
  25.8380       400
  25.8600       381
  25.8820       366
  25.9040       393
  25.9260       399
  25.9480       362
  25.9700       369
  25.9920       362
  26.0140       430
  26.0360       380
  26.0580       385
  26.0800       344
  26.1020       362
  26.1240       363
  26.1460       350
  26.1680       422
  26.1900       374
  26.2120       360
  26.2340       378
  26.2560       371
  26.2780       363
  26.3000       364
  26.3220       371
  26.3440       376
  26.3660       384
  26.3880       384
  26.4100       346
  26.4320       367
  26.4540       366
  26.4760       391
  26.4980       364
  26.5200       401
  26.5420       379
  26.5640       356
  26.5860       363
  26.6080       355
  26.6300       376
  26.6520       385
  26.6740       387
  26.6960       389
  26.7180       360
  26.7400       366
  26.7620       412
  26.7840       360
  26.8060       415
  26.8280       344
  26.8500       391
  26.8720       401
  26.8940       402
  26.9160       383
  26.9380       371
  26.9600       381
  26.9820       367
  27.0040       350
  27.0260       363
  27.0480       365
  27.0700       381
  27.0920       334
  27.1140       345
  27.1360       333
  27.1580       399
  27.1800       341
  27.2020       368
  27.2240       372
  27.2460       368
  27.2680       362
  27.2900       398
  27.3120       367
  27.3340       375
  27.3560       369
  27.3780       343
  27.4000       361
  27.4220       364
  27.4440       377
  27.4660       321
  27.4880       366
  27.5100       352
  27.5320       366
  27.5540       386
  27.5760       360
  27.5980       367
  27.6200       366
  27.6420       345
  27.6640       401
  27.6860       350
  27.7080       367
  27.7300       387
  27.7520       390
  27.7740       391
  27.7960       364
  27.8180       357
  27.8400       355
  27.8620       347
  27.8840       374
  27.9060       354
  27.9280       347
  27.9500       357
  27.9720       346
  27.9940       342
  28.0160       374
  28.0380       349
  28.0600       331
  28.0820       344
  28.1040       342
  28.1260       375
  28.1480       390
  28.1700       343
  28.1920       383
  28.2140       357
  28.2360       359
  28.2580       359
  28.2800       369
  28.3020       342
  28.3240       354
  28.3460       361
  28.3680       358
  28.3900       351
  28.4120       355
  28.4340       371
  28.4560       350
  28.4780       329
  28.5000       382
  28.5220       326
  28.5440       346
  28.5660       389
  28.5880       365
  28.6100       313
  28.6320       395
  28.6540       361
  28.6760       322
  28.6980       338
  28.7200       353
  28.7420       321
  28.7640       344
  28.7860       346
  28.8080       344
  28.8300       342
  28.8520       344
  28.8740       323
  28.8960       356
  28.9180       348
  28.9400       319
  28.9620       330
  28.9840       374
  29.0060       349
  29.0280       312
  29.0500       333
  29.0720       360
  29.0940       305
  29.1160       325
  29.1380       337
  29.1600       324
  29.1820       364
  29.2040       345
  29.2260       326
  29.2480       324
  29.2700       351
  29.2920       340
  29.3140       348
  29.3360       345
  29.3580       349
  29.3800       369
  29.4020       389
  29.4240       334
  29.4460       390
  29.4680       321
  29.4900       352
  29.5120       350
  29.5340       352
  29.5560       347
  29.5780       329
  29.6000       334
  29.6220       346
  29.6440       327
  29.6660       327
  29.6880       318
  29.7100       344
  29.7320       330
  29.7540       352
  29.7760       346
  29.7980       329
  29.8200       350
  29.8420       383
  29.8640       340
  29.8860       318
  29.9080       349
  29.9300       345
  29.9520       336
  29.9740       306
  29.9960       353
  30.0180       330
  30.0400       350
  30.0620       337
  30.0840       330
  30.1060       361
  30.1280       333
  30.1500       301
  30.1720       339
  30.1940       334
  30.2160       338
  30.2380       341
  30.2600       362
  30.2820       348
  30.3040       354
  30.3260       312
  30.3480       321
  30.3700       318
  30.3920       309
  30.4140       328
  30.4360       326
  30.4580       305
  30.4800       321
  30.5020       334
  30.5240       334
  30.5460       361
  30.5680       349
  30.5900       307
  30.6120       328
  30.6340       361
  30.6560       313
  30.6780       307
  30.7000       361
  30.7220       307
  30.7440       355
  30.7660       321
  30.7880       366
  30.8100       315
  30.8320       336
  30.8540       324
  30.8760       323
  30.8980       332
  30.9200       327
  30.9420       333
  30.9640       353
  30.9860       353
  31.0080       315
  31.0300       318
  31.0520       309
  31.0740       313
  31.0960       357
  31.1180       322
  31.1400       328
  31.1620       323
  31.1840       340
  31.2060       321
  31.2280       280
  31.2500       337
  31.2720       325
  31.2940       304
  31.3160       322
  31.3380       326
  31.3600       351
  31.3820       307
  31.4040       307
  31.4260       333
  31.4480       332
  31.4700       324
  31.4920       323
  31.5140       348
  31.5360       336
  31.5580       328
  31.5800       319
  31.6020       342
  31.6240       315
  31.6460       311
  31.6680       301
  31.6900       322
  31.7120       332
  31.7340       323
