; C:\Data\Froehlich\Praktikum\faber\probe2.raw(Diffrac Plus V1.01 file) converted by XCH V1.0
_FILEVERSION=2
_SAMPLE='probe2'
_SITE='II. Physikalisches Institut'
_ATTACHMENTS_CODE=0
_GONIOMETER_RADIUS=200.500000
_FIXED_DIVSLIT=2.000000
_FIXED_SAMPLESLIT=1.000000
_FIXED_DETSLIT=0.200000
_MONOCHROMATOR=0
; None
_THIN_FILM='N'
_BETA_FILTER='Y'
_FIXED_ANTISLIT=2.000000
_ANALYZER_CODE=0
; None
_DATEMEASURED='12-Nov-2015 16:55:34'
_WL_UNIT='A'
_WL1=1.540590
_WL2=1.544430
_WL3=1.392230
_WLRATIO=0.520000
_ANODE='Cu'
; (Data for Range number 1)
_DRIVE='COUPLED'
_STEPTIME=2.000000
_STEPSIZE=0.022000
_STEPMODE='C'
_START=12.000000
_THETA=6.000000
_2THETA=12.000000
_KHI=0.000000
_PHI=0.000000
_X=0.000000
_Y=0.000000
_Z=0.000000
_DIVERGENCE=0.000000
_ANTISCATTER=0.000000
_DETECTOR=1
; S.C.
_HV=1000.000000
_GAIN=80.000000
_LLD=0.550000
_ULD=1.310000
_DETECTORSLIT='unkn'
_AUX1=0.000000
_AUX2=0.000000
_AUX3=0.000000
_TIMESTARTED=13.000000
_ROTATION_SPEED=120.000000
_TEMP_RATE=-1.000000
_TEMP_DELAY=-1.000000
_KV=40
_MA=40
_RANGE_WL=1.540590
_3DPLANE=0
_2THETACOUNTS
  12.0000       220
  12.0220       239
  12.0440       242
  12.0660       263
  12.0880       266
  12.1100       212
  12.1320       245
  12.1540       235
  12.1760       236
  12.1980       249
  12.2200       238
  12.2420       255
  12.2640       254
  12.2860       245
  12.3080       237
  12.3300       235
  12.3520       259
  12.3740       232
  12.3960       237
  12.4180       254
  12.4400       232
  12.4620       210
  12.4840       254
  12.5060       253
  12.5280       238
  12.5500       243
  12.5720       274
  12.5940       274
  12.6160       231
  12.6380       266
  12.6600       248
  12.6820       249
  12.7040       221
  12.7260       251
  12.7480       232
  12.7700       236
  12.7920       264
  12.8140       258
  12.8360       237
  12.8580       250
  12.8800       230
  12.9020       247
  12.9240       237
  12.9460       270
  12.9680       266
  12.9900       206
  13.0120       243
  13.0340       255
  13.0560       245
  13.0780       244
  13.1000       245
  13.1220       261
  13.1440       257
  13.1660       241
  13.1880       235
  13.2100       251
  13.2320       239
  13.2540       235
  13.2760       252
  13.2980       221
  13.3200       255
  13.3420       258
  13.3640       233
  13.3860       231
  13.4080       248
  13.4300       259
  13.4520       263
  13.4740       269
  13.4960       215
  13.5180       261
  13.5400       267
  13.5620       245
  13.5840       236
  13.6060       240
  13.6280       263
  13.6500       217
  13.6720       283
  13.6940       255
  13.7160       263
  13.7380       261
  13.7600       262
  13.7820       242
  13.8040       237
  13.8260       263
  13.8480       247
  13.8700       250
  13.8920       252
  13.9140       267
  13.9360       256
  13.9580       267
  13.9800       258
  14.0020       247
  14.0240       254
  14.0460       227
  14.0680       306
  14.0900       248
  14.1120       275
  14.1340       269
  14.1560       275
  14.1780       248
  14.2000       257
  14.2220       236
  14.2440       257
  14.2660       253
  14.2880       273
  14.3100       262
  14.3320       212
  14.3540       262
  14.3760       274
  14.3980       261
  14.4200       243
  14.4420       262
  14.4640       234
  14.4860       257
  14.5080       245
  14.5300       255
  14.5520       266
  14.5740       252
  14.5960       267
  14.6180       243
  14.6400       246
  14.6620       230
  14.6840       263
  14.7060       290
  14.7280       246
  14.7500       258
  14.7720       261
  14.7940       259
  14.8160       241
  14.8380       269
  14.8600       249
  14.8820       245
  14.9040       246
  14.9260       254
  14.9480       244
  14.9700       252
  14.9920       269
  15.0140       247
  15.0360       245
  15.0580       271
  15.0800       226
  15.1020       252
  15.1240       240
  15.1460       290
  15.1680       281
  15.1900       261
  15.2120       282
  15.2340       280
  15.2560       261
  15.2780       257
  15.3000       257
  15.3220       273
  15.3440       275
  15.3660       271
  15.3880       262
  15.4100       246
  15.4320       271
  15.4540       269
  15.4760       318
  15.4980       266
  15.5200       267
  15.5420       284
  15.5640       261
  15.5860       260
  15.6080       281
  15.6300       254
  15.6520       281
  15.6740       269
  15.6960       277
  15.7180       257
  15.7400       278
  15.7620       268
  15.7840       235
  15.8060       271
  15.8280       293
  15.8500       261
  15.8720       289
  15.8940       272
  15.9160       284
  15.9380       282
  15.9600       282
  15.9820       248
  16.0040       285
  16.0260       287
  16.0480       284
  16.0700       260
  16.0920       301
  16.1140       286
  16.1360       270
  16.1580       288
  16.1800       281
  16.2020       268
  16.2240       285
  16.2460       258
  16.2680       324
  16.2900       291
  16.3120       277
  16.3340       298
  16.3560       282
  16.3780       287
  16.4000       261
  16.4220       276
  16.4440       278
  16.4660       285
  16.4880       306
  16.5100       276
  16.5320       284
  16.5540       298
  16.5760       289
  16.5980       271
  16.6200       297
  16.6420       286
  16.6640       291
  16.6860       288
  16.7080       269
  16.7300       260
  16.7520       251
  16.7740       276
  16.7960       248
  16.8180       296
  16.8400       283
  16.8620       277
  16.8840       285
  16.9060       279
  16.9280       306
  16.9500       252
  16.9720       264
  16.9940       308
  17.0160       297
  17.0380       275
  17.0600       262
  17.0820       276
  17.1040       314
  17.1260       295
  17.1480       303
  17.1700       260
  17.1920       309
  17.2140       314
  17.2360       305
  17.2580       312
  17.2800       292
  17.3020       296
  17.3240       297
  17.3460       320
  17.3680       296
  17.3900       319
  17.4120       330
  17.4340       274
  17.4560       301
  17.4780       301
  17.5000       288
  17.5220       286
  17.5440       298
  17.5660       302
  17.5880       331
  17.6100       310
  17.6320       306
  17.6540       302
  17.6760       329
  17.6980       308
  17.7200       303
  17.7420       309
  17.7640       302
  17.7860       314
  17.8080       286
  17.8300       297
  17.8520       310
  17.8740       302
  17.8960       312
  17.9180       351
  17.9400       312
  17.9620       334
  17.9840       301
  18.0060       304
  18.0280       311
  18.0500       325
  18.0720       309
  18.0940       306
  18.1160       314
  18.1380       324
  18.1600       295
  18.1820       314
  18.2040       304
  18.2260       304
  18.2480       323
  18.2700       304
  18.2920       300
  18.3140       351
  18.3360       319
  18.3580       332
  18.3800       325
  18.4020       311
  18.4240       319
  18.4460       329
  18.4680       298
  18.4900       328
  18.5120       342
  18.5340       302
  18.5560       352
  18.5780       316
  18.6000       344
  18.6220       365
  18.6440       319
  18.6660       347
  18.6880       322
  18.7100       341
  18.7320       328
  18.7540       356
  18.7760       327
  18.7980       306
  18.8200       341
  18.8420       329
  18.8640       313
  18.8860       314
  18.9080       322
  18.9300       315
  18.9520       327
  18.9740       324
  18.9960       308
  19.0180       356
  19.0400       351
  19.0620       356
  19.0840       305
  19.1060       320
  19.1280       343
  19.1500       342
  19.1720       341
  19.1940       347
  19.2160       352
  19.2380       305
  19.2600       339
  19.2820       326
  19.3040       310
  19.3260       326
  19.3480       341
  19.3700       314
  19.3920       340
  19.4140       307
  19.4360       321
  19.4580       330
  19.4800       383
  19.5020       333
  19.5240       347
  19.5460       321
  19.5680       379
  19.5900       363
  19.6120       356
  19.6340       341
  19.6560       350
  19.6780       353
  19.7000       363
  19.7220       355
  19.7440       350
  19.7660       320
  19.7880       342
  19.8100       352
  19.8320       333
  19.8540       324
  19.8760       366
  19.8980       343
  19.9200       364
  19.9420       346
  19.9640       368
  19.9860       345
  20.0080       390
  20.0300       367
  20.0520       297
  20.0740       341
  20.0960       363
  20.1180       359
  20.1400       349
  20.1620       327
  20.1840       354
  20.2060       353
  20.2280       355
  20.2500       356
  20.2720       337
  20.2940       363
  20.3160       342
  20.3380       342
  20.3600       390
  20.3820       381
  20.4040       338
  20.4260       368
  20.4480       353
  20.4700       373
  20.4920       367
  20.5140       388
  20.5360       351
  20.5580       377
  20.5800       356
  20.6020       369
  20.6240       370
  20.6460       387
  20.6680       385
  20.6900       332
  20.7120       356
  20.7340       346
  20.7560       379
  20.7780       361
  20.8000       406
  20.8220       364
  20.8440       382
  20.8660       385
  20.8880       394
  20.9100       409
  20.9320       372
  20.9540       352
  20.9760       346
  20.9980       378
  21.0200       411
  21.0420       351
  21.0640       394
  21.0860       390
  21.1080       403
  21.1300       371
  21.1520       333
  21.1740       364
  21.1960       392
  21.2180       395
  21.2400       380
  21.2620       382
  21.2840       381
  21.3060       394
  21.3280       382
  21.3500       372
  21.3720       387
  21.3940       380
  21.4160       366
  21.4380       369
  21.4600       388
  21.4820       432
  21.5040       389
  21.5260       448
  21.5480       407
  21.5700       406
  21.5920       429
  21.6140       387
  21.6360       361
  21.6580       382
  21.6800       413
  21.7020       420
  21.7240       375
  21.7460       454
  21.7680       412
  21.7900       398
  21.8120       431
  21.8340       426
  21.8560       421
  21.8780       400
  21.9000       366
  21.9220       396
  21.9440       386
  21.9660       408
  21.9880       393
  22.0100       390
  22.0320       413
  22.0540       409
  22.0760       408
  22.0980       392
  22.1200       403
  22.1420       403
  22.1640       401
  22.1860       439
  22.2080       392
  22.2300       423
  22.2520       420
  22.2740       412
  22.2960       420
  22.3180       418
  22.3400       405
  22.3620       376
  22.3840       409
  22.4060       434
  22.4280       399
  22.4500       430
  22.4720       418
  22.4940       423
  22.5160       413
  22.5380       434
  22.5600       389
  22.5820       419
  22.6040       434
  22.6260       443
  22.6480       411
  22.6700       402
  22.6920       417
  22.7140       389
  22.7360       408
  22.7580       447
  22.7800       378
  22.8020       432
  22.8240       410
  22.8460       420
  22.8680       465
  22.8900       458
  22.9120       468
  22.9340       467
  22.9560       466
  22.9780       407
  23.0000       422
  23.0220       450
  23.0440       413
  23.0660       453
  23.0880       429
  23.1100       472
  23.1320       475
  23.1540       447
  23.1760       450
  23.1980       444
  23.2200       432
  23.2420       465
  23.2640       485
  23.2860       443
  23.3080       455
  23.3300       465
  23.3520       487
  23.3740       435
  23.3960       460
  23.4180       447
  23.4400       474
  23.4620       437
  23.4840       470
  23.5060       502
  23.5280       466
  23.5500       487
  23.5720       483
  23.5940       504
  23.6160       511
  23.6380       466
  23.6600       494
  23.6820       551
  23.7040       553
  23.7260       544
  23.7480       577
  23.7700       519
  23.7920       532
  23.8140       528
  23.8360       574
  23.8580       562
  23.8800       531
  23.9020       538
  23.9240       546
  23.9460       533
  23.9680       516
  23.9900       523
  24.0120       490
  24.0340       487
  24.0560       537
  24.0780       501
  24.1000       523
  24.1220       457
  24.1440       463
  24.1660       472
  24.1880       495
  24.2100       463
  24.2320       508
  24.2540       466
  24.2760       463
  24.2980       435
  24.3200       415
  24.3420       454
  24.3640       469
  24.3860       446
  24.4080       416
  24.4300       455
  24.4520       423
  24.4740       433
  24.4960       448
  24.5180       407
  24.5400       437
  24.5620       440
  24.5840       441
  24.6060       446
  24.6280       444
  24.6500       425
  24.6720       443
  24.6940       415
  24.7160       429
  24.7380       423
  24.7600       460
  24.7820       446
  24.8040       448
  24.8260       447
  24.8480       434
  24.8700       430
  24.8920       441
  24.9140       428
  24.9360       433
  24.9580       448
  24.9800       430
  25.0020       425
  25.0240       411
  25.0460       389
  25.0680       420
  25.0900       426
  25.1120       407
  25.1340       430
  25.1560       470
  25.1780       385
  25.2000       413
  25.2220       379
  25.2440       415
  25.2660       400
  25.2880       429
  25.3100       438
  25.3320       442
  25.3540       418
  25.3760       429
  25.3980       443
  25.4200       427
  25.4420       444
  25.4640       447
  25.4860       395
  25.5080       416
  25.5300       439
  25.5520       427
  25.5740       440
  25.5960       448
  25.6180       429
  25.6400       424
  25.6620       458
  25.6840       395
  25.7060       441
  25.7280       423
  25.7500       482
  25.7720       439
  25.7940       454
  25.8160       411
  25.8380       456
  25.8600       411
  25.8820       457
  25.9040       412
  25.9260       432
  25.9480       431
  25.9700       429
  25.9920       405
  26.0140       425
  26.0360       450
  26.0580       422
  26.0800       453
  26.1020       390
  26.1240       403
  26.1460       413
  26.1680       407
  26.1900       447
  26.2120       437
  26.2340       410
  26.2560       438
  26.2780       412
  26.3000       397
  26.3220       379
  26.3440       413
  26.3660       436
  26.3880       414
  26.4100       410
  26.4320       432
  26.4540       414
  26.4760       409
  26.4980       386
  26.5200       438
  26.5420       428
  26.5640       405
  26.5860       414
  26.6080       432
  26.6300       435
  26.6520       411
  26.6740       409
  26.6960       429
  26.7180       395
  26.7400       418
  26.7620       431
  26.7840       413
  26.8060       414
  26.8280       436
  26.8500       408
  26.8720       409
  26.8940       422
  26.9160       378
  26.9380       426
  26.9600       436
  26.9820       393
  27.0040       408
  27.0260       393
  27.0480       418
  27.0700       447
  27.0920       429
  27.1140       410
  27.1360       422
  27.1580       369
  27.1800       446
  27.2020       385
  27.2240       395
  27.2460       395
  27.2680       408
  27.2900       445
  27.3120       413
  27.3340       360
  27.3560       457
  27.3780       389
  27.4000       431
  27.4220       453
  27.4440       446
  27.4660       406
  27.4880       441
  27.5100       384
  27.5320       426
  27.5540       381
  27.5760       438
  27.5980       432
  27.6200       414
  27.6420       428
  27.6640       414
  27.6860       452
  27.7080       375
  27.7300       427
  27.7520       437
  27.7740       453
  27.7960       417
  27.8180       396
  27.8400       440
  27.8620       405
  27.8840       373
  27.9060       417
  27.9280       398
  27.9500       399
  27.9720       443
  27.9940       432
  28.0160       426
  28.0380       392
  28.0600       419
  28.0820       433
  28.1040       380
  28.1260       407
  28.1480       422
  28.1700       434
  28.1920       404
  28.2140       396
  28.2360       423
  28.2580       417
  28.2800       412
  28.3020       399
  28.3240       419
  28.3460       408
  28.3680       444
  28.3900       390
  28.4120       396
  28.4340       427
  28.4560       415
  28.4780       388
  28.5000       415
  28.5220       395
  28.5440       349
  28.5660       430
  28.5880       445
  28.6100       414
  28.6320       413
  28.6540       421
  28.6760       424
  28.6980       438
  28.7200       401
  28.7420       413
  28.7640       440
  28.7860       427
  28.8080       422
  28.8300       409
  28.8520       430
  28.8740       372
  28.8960       403
  28.9180       429
  28.9400       390
  28.9620       356
  28.9840       411
  29.0060       430
  29.0280       436
  29.0500       420
  29.0720       378
  29.0940       443
  29.1160       434
  29.1380       419
  29.1600       378
  29.1820       401
  29.2040       390
  29.2260       443
  29.2480       428
  29.2700       403
  29.2920       456
  29.3140       392
  29.3360       422
  29.3580       425
  29.3800       396
  29.4020       419
  29.4240       442
  29.4460       435
  29.4680       426
  29.4900       384
  29.5120       422
  29.5340       419
  29.5560       437
  29.5780       425
  29.6000       407
  29.6220       414
  29.6440       422
  29.6660       401
  29.6880       443
  29.7100       389
  29.7320       427
  29.7540       379
  29.7760       388
  29.7980       409
  29.8200       395
  29.8420       378
  29.8640       386
  29.8860       430
  29.9080       410
  29.9300       415
  29.9520       421
  29.9740       398
  29.9960       411
  30.0180       410
  30.0400       403
  30.0620       387
  30.0840       427
  30.1060       417
  30.1280       364
  30.1500       421
  30.1720       419
  30.1940       419
  30.2160       367
  30.2380       377
  30.2600       445
  30.2820       404
  30.3040       424
  30.3260       388
  30.3480       420
  30.3700       415
  30.3920       389
  30.4140       416
  30.4360       358
  30.4580       411
  30.4800       425
  30.5020       393
  30.5240       410
  30.5460       411
  30.5680       424
  30.5900       408
  30.6120       408
  30.6340       395
  30.6560       415
  30.6780       410
  30.7000       391
  30.7220       400
  30.7440       377
  30.7660       378
  30.7880       413
  30.8100       419
  30.8320       390
  30.8540       441
  30.8760       396
  30.8980       388
  30.9200       441
  30.9420       436
  30.9640       411
  30.9860       367
  31.0080       410
  31.0300       396
  31.0520       409
  31.0740       427
  31.0960       425
  31.1180       359
  31.1400       393
  31.1620       446
  31.1840       434
  31.2060       388
  31.2280       394
  31.2500       402
  31.2720       389
  31.2940       416
  31.3160       389
  31.3380       391
  31.3600       372
  31.3820       393
  31.4040       422
  31.4260       426
  31.4480       394
  31.4700       419
  31.4920       419
  31.5140       386
  31.5360       396
  31.5580       425
  31.5800       427
  31.6020       390
  31.6240       399
  31.6460       420
  31.6680       412
  31.6900       429
  31.7120       382
  31.7340       423
