; C:\Data\Froehlich\Praktikum\faber\probe3.raw(Diffrac Plus V1.01 file) converted by XCH V1.0
_FILEVERSION=2
_SAMPLE='probe3'
_SITE='II. Physikalisches Institut'
_ATTACHMENTS_CODE=0
_GONIOMETER_RADIUS=200.500000
_FIXED_DIVSLIT=2.000000
_FIXED_SAMPLESLIT=1.000000
_FIXED_DETSLIT=0.200000
_MONOCHROMATOR=0
; None
_THIN_FILM='N'
_BETA_FILTER='Y'
_FIXED_ANTISLIT=2.000000
_ANALYZER_CODE=0
; None
_DATEMEASURED='12-Nov-2015 14:08:13'
_WL_UNIT='A'
_WL1=1.540590
_WL2=1.544430
_WL3=1.392230
_WLRATIO=0.520000
_ANODE='Cu'
; (Data for Range number 1)
_DRIVE='COUPLED'
_STEPTIME=2.000000
_STEPSIZE=0.022000
_STEPMODE='C'
_START=12.000000
_THETA=6.000000
_2THETA=12.000000
_KHI=0.000000
_PHI=0.000000
_X=0.000000
_Y=0.000000
_Z=0.000000
_DIVERGENCE=0.000000
_ANTISCATTER=0.000000
_DETECTOR=1
; S.C.
_HV=1000.000000
_GAIN=80.000000
_LLD=0.550000
_ULD=1.310000
_DETECTORSLIT='unkn'
_AUX1=0.000000
_AUX2=0.000000
_AUX3=0.000000
_TIMESTARTED=12.000000
_ROTATION_SPEED=120.000000
_TEMP_RATE=-1.000000
_TEMP_DELAY=-1.000000
_KV=40
_MA=40
_RANGE_WL=1.540590
_3DPLANE=0
_2THETACOUNTS
  12.0000       297
  12.0220       298
  12.0440       249
  12.0660       278
  12.0880       255
  12.1100       304
  12.1320       301
  12.1540       278
  12.1760       301
  12.1980       275
  12.2200       271
  12.2420       279
  12.2640       279
  12.2860       269
  12.3080       268
  12.3300       298
  12.3520       258
  12.3740       275
  12.3960       286
  12.4180       283
  12.4400       265
  12.4620       285
  12.4840       286
  12.5060       255
  12.5280       246
  12.5500       265
  12.5720       295
  12.5940       257
  12.6160       252
  12.6380       263
  12.6600       266
  12.6820       288
  12.7040       261
  12.7260       243
  12.7480       281
  12.7700       263
  12.7920       264
  12.8140       273
  12.8360       252
  12.8580       282
  12.8800       281
  12.9020       277
  12.9240       254
  12.9460       292
  12.9680       283
  12.9900       249
  13.0120       282
  13.0340       262
  13.0560       258
  13.0780       314
  13.1000       258
  13.1220       279
  13.1440       274
  13.1660       269
  13.1880       263
  13.2100       254
  13.2320       240
  13.2540       251
  13.2760       268
  13.2980       262
  13.3200       244
  13.3420       287
  13.3640       263
  13.3860       277
  13.4080       270
  13.4300       267
  13.4520       292
  13.4740       243
  13.4960       256
  13.5180       263
  13.5400       245
  13.5620       265
  13.5840       270
  13.6060       270
  13.6280       280
  13.6500       266
  13.6720       260
  13.6940       299
  13.7160       260
  13.7380       277
  13.7600       265
  13.7820       275
  13.8040       249
  13.8260       263
  13.8480       248
  13.8700       230
  13.8920       248
  13.9140       270
  13.9360       281
  13.9580       272
  13.9800       260
  14.0020       251
  14.0240       277
  14.0460       255
  14.0680       272
  14.0900       257
  14.1120       239
  14.1340       282
  14.1560       250
  14.1780       314
  14.2000       268
  14.2220       275
  14.2440       268
  14.2660       252
  14.2880       268
  14.3100       283
  14.3320       260
  14.3540       296
  14.3760       282
  14.3980       253
  14.4200       263
  14.4420       248
  14.4640       279
  14.4860       289
  14.5080       292
  14.5300       257
  14.5520       236
  14.5740       283
  14.5960       269
  14.6180       273
  14.6400       279
  14.6620       293
  14.6840       250
  14.7060       267
  14.7280       331
  14.7500       264
  14.7720       272
  14.7940       263
  14.8160       260
  14.8380       251
  14.8600       271
  14.8820       271
  14.9040       287
  14.9260       297
  14.9480       270
  14.9700       279
  14.9920       270
  15.0140       245
  15.0360       280
  15.0580       239
  15.0800       259
  15.1020       255
  15.1240       258
  15.1460       300
  15.1680       297
  15.1900       292
  15.2120       233
  15.2340       281
  15.2560       255
  15.2780       310
  15.3000       300
  15.3220       312
  15.3440       280
  15.3660       295
  15.3880       272
  15.4100       283
  15.4320       281
  15.4540       292
  15.4760       322
  15.4980       273
  15.5200       272
  15.5420       278
  15.5640       260
  15.5860       274
  15.6080       304
  15.6300       310
  15.6520       283
  15.6740       294
  15.6960       294
  15.7180       250
  15.7400       275
  15.7620       272
  15.7840       286
  15.8060       330
  15.8280       307
  15.8500       291
  15.8720       292
  15.8940       283
  15.9160       289
  15.9380       285
  15.9600       290
  15.9820       285
  16.0040       283
  16.0260       301
  16.0480       299
  16.0700       290
  16.0920       308
  16.1140       304
  16.1360       286
  16.1580       286
  16.1800       300
  16.2020       303
  16.2240       278
  16.2460       293
  16.2680       301
  16.2900       318
  16.3120       298
  16.3340       291
  16.3560       279
  16.3780       302
  16.4000       290
  16.4220       270
  16.4440       282
  16.4660       284
  16.4880       289
  16.5100       296
  16.5320       290
  16.5540       296
  16.5760       291
  16.5980       298
  16.6200       295
  16.6420       307
  16.6640       290
  16.6860       302
  16.7080       306
  16.7300       290
  16.7520       280
  16.7740       291
  16.7960       293
  16.8180       318
  16.8400       317
  16.8620       305
  16.8840       303
  16.9060       314
  16.9280       303
  16.9500       323
  16.9720       287
  16.9940       299
  17.0160       312
  17.0380       320
  17.0600       303
  17.0820       311
  17.1040       308
  17.1260       327
  17.1480       291
  17.1700       321
  17.1920       284
  17.2140       286
  17.2360       320
  17.2580       319
  17.2800       305
  17.3020       321
  17.3240       309
  17.3460       305
  17.3680       325
  17.3900       317
  17.4120       336
  17.4340       321
  17.4560       316
  17.4780       307
  17.5000       318
  17.5220       324
  17.5440       338
  17.5660       317
  17.5880       334
  17.6100       316
  17.6320       311
  17.6540       319
  17.6760       336
  17.6980       334
  17.7200       331
  17.7420       349
  17.7640       348
  17.7860       320
  17.8080       302
  17.8300       307
  17.8520       315
  17.8740       335
  17.8960       332
  17.9180       335
  17.9400       346
  17.9620       318
  17.9840       331
  18.0060       334
  18.0280       340
  18.0500       330
  18.0720       312
  18.0940       330
  18.1160       334
  18.1380       343
  18.1600       328
  18.1820       331
  18.2040       322
  18.2260       324
  18.2480       351
  18.2700       372
  18.2920       374
  18.3140       330
  18.3360       326
  18.3580       378
  18.3800       349
  18.4020       368
  18.4240       327
  18.4460       354
  18.4680       326
  18.4900       334
  18.5120       369
  18.5340       386
  18.5560       353
  18.5780       361
  18.6000       337
  18.6220       369
  18.6440       344
  18.6660       305
  18.6880       350
  18.7100       323
  18.7320       355
  18.7540       324
  18.7760       356
  18.7980       347
  18.8200       376
  18.8420       404
  18.8640       388
  18.8860       343
  18.9080       332
  18.9300       340
  18.9520       364
  18.9740       353
  18.9960       367
  19.0180       329
  19.0400       341
  19.0620       348
  19.0840       350
  19.1060       347
  19.1280       390
  19.1500       345
  19.1720       326
  19.1940       340
  19.2160       356
  19.2380       378
  19.2600       382
  19.2820       363
  19.3040       363
  19.3260       381
  19.3480       341
  19.3700       351
  19.3920       371
  19.4140       400
  19.4360       371
  19.4580       344
  19.4800       375
  19.5020       391
  19.5240       349
  19.5460       373
  19.5680       326
  19.5900       379
  19.6120       367
  19.6340       374
  19.6560       423
  19.6780       380
  19.7000       350
  19.7220       388
  19.7440       372
  19.7660       378
  19.7880       357
  19.8100       367
  19.8320       408
  19.8540       355
  19.8760       408
  19.8980       402
  19.9200       367
  19.9420       391
  19.9640       390
  19.9860       369
  20.0080       366
  20.0300       388
  20.0520       365
  20.0740       391
  20.0960       348
  20.1180       367
  20.1400       424
  20.1620       367
  20.1840       382
  20.2060       385
  20.2280       407
  20.2500       409
  20.2720       424
  20.2940       379
  20.3160       385
  20.3380       396
  20.3600       377
  20.3820       356
  20.4040       350
  20.4260       352
  20.4480       400
  20.4700       394
  20.4920       404
  20.5140       395
  20.5360       403
  20.5580       433
  20.5800       411
  20.6020       380
  20.6240       366
  20.6460       373
  20.6680       400
  20.6900       412
  20.7120       401
  20.7340       385
  20.7560       397
  20.7780       426
  20.8000       386
  20.8220       424
  20.8440       404
  20.8660       411
  20.8880       418
  20.9100       347
  20.9320       390
  20.9540       410
  20.9760       397
  20.9980       392
  21.0200       406
  21.0420       412
  21.0640       411
  21.0860       421
  21.1080       423
  21.1300       411
  21.1520       398
  21.1740       406
  21.1960       401
  21.2180       442
  21.2400       408
  21.2620       417
  21.2840       394
  21.3060       416
  21.3280       452
  21.3500       425
  21.3720       388
  21.3940       430
  21.4160       393
  21.4380       406
  21.4600       417
  21.4820       402
  21.5040       445
  21.5260       400
  21.5480       418
  21.5700       402
  21.5920       428
  21.6140       436
  21.6360       435
  21.6580       445
  21.6800       402
  21.7020       409
  21.7240       445
  21.7460       429
  21.7680       391
  21.7900       405
  21.8120       448
  21.8340       455
  21.8560       461
  21.8780       459
  21.9000       429
  21.9220       383
  21.9440       429
  21.9660       408
  21.9880       424
  22.0100       394
  22.0320       409
  22.0540       408
  22.0760       406
  22.0980       420
  22.1200       397
  22.1420       456
  22.1640       429
  22.1860       424
  22.2080       399
  22.2300       413
  22.2520       438
  22.2740       461
  22.2960       438
  22.3180       464
  22.3400       400
  22.3620       456
  22.3840       419
  22.4060       427
  22.4280       425
  22.4500       462
  22.4720       416
  22.4940       412
  22.5160       426
  22.5380       409
  22.5600       430
  22.5820       442
  22.6040       444
  22.6260       433
  22.6480       435
  22.6700       433
  22.6920       402
  22.7140       471
  22.7360       466
  22.7580       392
  22.7800       416
  22.8020       468
  22.8240       420
  22.8460       495
  22.8680       437
  22.8900       458
  22.9120       455
  22.9340       487
  22.9560       462
  22.9780       466
  23.0000       449
  23.0220       408
  23.0440       409
  23.0660       416
  23.0880       465
  23.1100       464
  23.1320       478
  23.1540       442
  23.1760       460
  23.1980       452
  23.2200       435
  23.2420       443
  23.2640       450
  23.2860       480
  23.3080       453
  23.3300       482
  23.3520       424
  23.3740       462
  23.3960       451
  23.4180       417
  23.4400       472
  23.4620       434
  23.4840       454
  23.5060       459
  23.5280       484
  23.5500       458
  23.5720       456
  23.5940       448
  23.6160       446
  23.6380       477
  23.6600       472
  23.6820       471
  23.7040       485
  23.7260       474
  23.7480       428
  23.7700       460
  23.7920       444
  23.8140       440
  23.8360       481
  23.8580       424
  23.8800       438
  23.9020       454
  23.9240       424
  23.9460       447
  23.9680       443
  23.9900       459
  24.0120       463
  24.0340       409
  24.0560       432
  24.0780       464
  24.1000       433
  24.1220       460
  24.1440       429
  24.1660       459
  24.1880       460
  24.2100       422
  24.2320       452
  24.2540       404
  24.2760       483
  24.2980       433
  24.3200       446
  24.3420       456
  24.3640       462
  24.3860       470
  24.4080       444
  24.4300       477
  24.4520       451
  24.4740       398
  24.4960       447
  24.5180       481
  24.5400       492
  24.5620       457
  24.5840       427
  24.6060       471
  24.6280       481
  24.6500       489
  24.6720       432
  24.6940       421
  24.7160       439
  24.7380       487
  24.7600       472
  24.7820       493
  24.8040       450
  24.8260       490
  24.8480       453
  24.8700       533
  24.8920       473
  24.9140       478
  24.9360       472
  24.9580       456
  24.9800       471
  25.0020       441
  25.0240       474
  25.0460       470
  25.0680       444
  25.0900       465
  25.1120       477
  25.1340       469
  25.1560       441
  25.1780       465
  25.2000       448
  25.2220       477
  25.2440       491
  25.2660       450
  25.2880       446
  25.3100       462
  25.3320       445
  25.3540       471
  25.3760       464
  25.3980       427
  25.4200       478
  25.4420       457
  25.4640       471
  25.4860       433
  25.5080       531
  25.5300       443
  25.5520       438
  25.5740       444
  25.5960       442
  25.6180       461
  25.6400       472
  25.6620       426
  25.6840       479
  25.7060       451
  25.7280       436
  25.7500       427
  25.7720       442
  25.7940       476
  25.8160       444
  25.8380       455
  25.8600       453
  25.8820       457
  25.9040       508
  25.9260       489
  25.9480       508
  25.9700       430
  25.9920       466
  26.0140       446
  26.0360       483
  26.0580       414
  26.0800       443
  26.1020       450
  26.1240       468
  26.1460       473
  26.1680       465
  26.1900       435
  26.2120       414
  26.2340       455
  26.2560       416
  26.2780       437
  26.3000       482
  26.3220       447
  26.3440       453
  26.3660       462
  26.3880       454
  26.4100       441
  26.4320       491
  26.4540       467
  26.4760       470
  26.4980       476
  26.5200       464
  26.5420       473
  26.5640       460
  26.5860       434
  26.6080       442
  26.6300       422
  26.6520       479
  26.6740       448
  26.6960       439
  26.7180       468
  26.7400       434
  26.7620       467
  26.7840       462
  26.8060       446
  26.8280       496
  26.8500       431
  26.8720       494
  26.8940       452
  26.9160       428
  26.9380       437
  26.9600       485
  26.9820       468
  27.0040       410
  27.0260       448
  27.0480       434
  27.0700       438
  27.0920       423
  27.1140       493
  27.1360       455
  27.1580       463
  27.1800       458
  27.2020       466
  27.2240       450
  27.2460       440
  27.2680       442
  27.2900       406
  27.3120       454
  27.3340       450
  27.3560       447
  27.3780       437
  27.4000       481
  27.4220       451
  27.4440       462
  27.4660       444
  27.4880       452
  27.5100       454
  27.5320       456
  27.5540       475
  27.5760       442
  27.5980       434
  27.6200       472
  27.6420       437
  27.6640       447
  27.6860       425
  27.7080       461
  27.7300       468
  27.7520       435
  27.7740       408
  27.7960       445
  27.8180       452
  27.8400       437
  27.8620       418
  27.8840       439
  27.9060       430
  27.9280       425
  27.9500       470
  27.9720       443
  27.9940       436
  28.0160       456
  28.0380       448
  28.0600       428
  28.0820       481
  28.1040       428
  28.1260       467
  28.1480       468
  28.1700       454
  28.1920       452
  28.2140       435
  28.2360       470
  28.2580       451
  28.2800       433
  28.3020       452
  28.3240       476
  28.3460       420
  28.3680       443
  28.3900       425
  28.4120       450
  28.4340       438
  28.4560       479
  28.4780       499
  28.5000       446
  28.5220       428
  28.5440       475
  28.5660       438
  28.5880       450
  28.6100       469
  28.6320       433
  28.6540       441
  28.6760       448
  28.6980       412
  28.7200       414
  28.7420       451
  28.7640       416
  28.7860       455
  28.8080       454
  28.8300       458
  28.8520       447
  28.8740       448
  28.8960       441
  28.9180       467
  28.9400       465
  28.9620       428
  28.9840       400
  29.0060       449
  29.0280       450
  29.0500       455
  29.0720       448
  29.0940       423
  29.1160       454
  29.1380       436
  29.1600       451
  29.1820       416
  29.2040       453
  29.2260       462
  29.2480       442
  29.2700       444
  29.2920       438
  29.3140       491
  29.3360       461
  29.3580       459
  29.3800       430
  29.4020       439
  29.4240       428
  29.4460       462
  29.4680       463
  29.4900       438
  29.5120       402
  29.5340       418
  29.5560       447
  29.5780       390
  29.6000       375
  29.6220       467
  29.6440       446
  29.6660       407
  29.6880       417
  29.7100       457
  29.7320       449
  29.7540       478
  29.7760       422
  29.7980       471
  29.8200       461
  29.8420       443
  29.8640       448
  29.8860       433
  29.9080       420
  29.9300       457
  29.9520       434
  29.9740       439
  29.9960       483
  30.0180       438
  30.0400       450
  30.0620       469
  30.0840       463
  30.1060       427
  30.1280       439
  30.1500       408
  30.1720       427
  30.1940       425
  30.2160       407
  30.2380       427
  30.2600       429
  30.2820       452
  30.3040       420
  30.3260       411
  30.3480       440
  30.3700       397
  30.3920       443
  30.4140       418
  30.4360       484
  30.4580       433
  30.4800       435
  30.5020       387
  30.5240       463
  30.5460       419
  30.5680       439
  30.5900       458
  30.6120       415
  30.6340       441
  30.6560       454
  30.6780       396
  30.7000       428
  30.7220       439
  30.7440       429
  30.7660       473
  30.7880       399
  30.8100       432
  30.8320       384
  30.8540       443
  30.8760       423
  30.8980       426
  30.9200       436
  30.9420       429
  30.9640       423
  30.9860       422
  31.0080       415
  31.0300       421
  31.0520       429
  31.0740       415
  31.0960       443
  31.1180       396
  31.1400       412
  31.1620       430
  31.1840       433
  31.2060       403
  31.2280       425
  31.2500       439
  31.2720       432
  31.2940       449
  31.3160       392
  31.3380       406
  31.3600       411
  31.3820       428
  31.4040       442
  31.4260       420
  31.4480       430
  31.4700       442
  31.4920       436
  31.5140       440
  31.5360       452
  31.5580       446
  31.5800       448
  31.6020       446
  31.6240       423
  31.6460       437
  31.6680       455
  31.6900       397
  31.7120       434
  31.7340       436
